;  Optical constants for in-situ sputtered Si
; 
;   taken from:
;
;   C. Tarrio et al, App. Opt. 37, 4100, 1998.
;   
;    Lambda (A)            n            k
;-----------------------------------------
       61.999300       0.99310000     0.0085900000
       68.751733       0.99250000      0.011400000
       77.701178       0.99123000      0.014100000
       88.900043       0.99222000      0.016300000
       103.29945        1.0014000      0.022300000
       119.99613        1.0062700      0.011900000
       129.34659        1.0020500     0.0019000000
       137.99935       0.99668000     0.0020600000
       145.99967       0.99311000     0.0024500000
       155.00019       0.98974500     0.0028000000
       180.30045       0.98190000     0.0049500000
       247.00163       0.95720000     0.0076500000
       274.99778       0.94490000     0.0096300000
       296.00095       0.93780000      0.013000000
       309.99650       0.92920000      0.013900000
