;  Optical constants for amorphous Si
;  
;  Concatenation of:
;
;  a-Si_llnl_cxro + a-Si_palik
;
;    Lambda (A)            n            k
;-----------------------------------------
      0.12398425       0.99999995    5.3470773e-12
      0.12460729       0.99999995    5.4613455e-12
      0.12523662       0.99999995    5.5786125e-12
      0.12651454       0.99999995    5.8226427e-12
      0.12848109       0.99999995    6.2140153e-12
      0.13050974       0.99999995    6.6384399e-12
      0.13189814       0.99999995    6.9414385e-12
      0.13331640       0.99999995    7.2616903e-12
      0.13550191       0.99999995    7.7771530e-12
      0.13776028       0.99999994    8.3386504e-12
      0.13930815       0.99999994    8.7408794e-12
      0.14089119       0.99999994    9.1673637e-12
      0.14333439       0.99999994    9.8565267e-12
      0.14586382       0.99999994    1.0610954e-11
      0.14760030       0.99999994    1.1153842e-11
      0.14937861       0.99999993    1.1731477e-11
      0.15212791       0.99999993    1.2669098e-11
      0.15498031       0.99999993    1.3701249e-11
      0.15634836       0.99999993    1.4218024e-11
      0.15774078       0.99999993    1.4759182e-11
      0.16078881       0.99999992    1.5998607e-11
      0.16313717       0.99999992    1.7006369e-11
      0.16421755       0.99999992    1.7485968e-11
      0.16540055       0.99999992    1.8022795e-11
      0.16709468       0.99999992    1.8813477e-11
      0.16868605       0.99999992    1.9579955e-11
      0.17030804       0.99999991    2.0385518e-11
      0.17220035       0.99999991    2.1356947e-11
      0.17462570       0.99999991    2.2653202e-11
      0.17712036       0.99999991    2.4048290e-11
      0.17968732       0.99999990    2.5548894e-11
      0.18232978       0.99999990    2.7167060e-11
      0.18395289       0.99999990    2.8199103e-11
      0.18552185       0.99999990    2.9224774e-11
      0.18813998       0.99999990    3.0999384e-11
      0.19074500       0.99999989    3.2845513e-11
      0.19372539       0.99999989    3.5059205e-11
      0.19680040       0.99999989    3.7460457e-11
      0.19901164       0.99999988    3.9263304e-11
      0.20160041       0.99999988    4.1457043e-11
      0.20392146       0.99999988    4.3502355e-11
      0.20664042       0.99999987    4.5995071e-11
      0.20733152       0.99999987    4.6644701e-11
      0.20823690       0.99999987    4.7506295e-11
      0.21193889       0.99999987    5.1156092e-11
      0.21376595       0.99999987    5.3034269e-11
      0.21551234       0.99999986    5.4878302e-11
      0.21828213       0.99999986    5.7902743e-11
      0.22140045       0.99999986    6.1455620e-11
      0.22339505       0.99999985    6.3812100e-11
      0.22420298       0.99999985    6.4785625e-11
      0.22481278       0.99999985    6.5527750e-11
      0.22542591       0.99999985    6.6280440e-11
      0.22563103       0.99999985    6.6533662e-11
      0.22583652       0.99999985    6.6788233e-11
      0.22596000       0.99999985    6.6941454e-11
      0.22600118       0.99999985    6.6992629e-11
      0.22602178       0.99999985    6.7112473e-11
      0.22604239       0.99999985    6.7169878e-11
      0.22610422       0.99999985    6.7246982e-11
      0.22616609       0.99999985    6.7324268e-11
      0.22624863       0.99999985    6.7427504e-11
      0.22686962       0.99999985    6.8207430e-11
      0.22749404       0.99999985    6.8998637e-11
      0.22960046       0.99999984    7.1718844e-11
      0.23174626       0.99999984    7.4570760e-11
      0.23393255       0.99999984    7.7564456e-11
      0.23616048       0.99999984    8.0708398e-11
      0.23843125       0.99999983    8.4011789e-11
      0.24074612       0.99999983    8.7484257e-11
      0.24310637       0.99999983    9.1136381e-11
      0.24551337       0.99999982    9.4979379e-11
      0.24796850       0.99999982    9.9025031e-11
      0.25047323       0.99999982    1.0327646e-10
      0.25302908       0.99999981    1.0775660e-10
      0.25563763       0.99999981    1.1247986e-10
      0.25830052       0.99999980    1.1746252e-10
      0.26101947       0.99999980    1.2272178e-10
      0.26379628       0.99999979    1.2827611e-10
      0.26663280       0.99999979    1.3414534e-10
      0.26953098       0.99999979    1.4035093e-10
      0.27369592       0.99999978    1.4964860e-10
      0.27861629       0.99999977    1.6121111e-10
      0.28306906       0.99999976    1.7223927e-10
      0.28833547       0.99999975    1.8601338e-10
      0.29310697       0.99999975    1.9920058e-10
      0.29590513       0.99999974    2.0725897e-10
      0.29875723       0.99999974    2.1572403e-10
      0.30166484       0.99999973    2.2462271e-10
      0.30388297       0.99999973    2.3159606e-10
      0.30689171       0.99999972    2.4131722e-10
      0.30996062       0.99999972    2.5155068e-10
      0.31388418       0.99999971    2.6507622e-10
      0.31790833       0.99999970    2.7951707e-10
      0.32203701       0.99999969    2.9494660e-10
      0.32627434       0.99999969    3.1144630e-10
      0.33062467       0.99999968    3.2907441e-10
      0.33509257       0.99999967    3.4795693e-10
      0.33968288       0.99999966    3.6820212e-10
      0.34411393       0.99999965    3.8858052e-10
      0.34729482       0.99999964    4.0373078e-10
      0.35123017       0.99999964    4.2308978e-10
      0.35525573       0.99999963    4.4360455e-10
      0.35937464       0.99999962    4.6532947e-10
      0.36359018       0.99999961    4.8839170e-10
      0.36681731       0.99999960    5.0662406e-10
      0.37121033       0.99999959    5.3227141e-10
      0.37570985       0.99999958    5.5954681e-10
      0.38031979       0.99999957    5.8852942e-10
      0.38385217       0.99999957    6.1149568e-10
      0.38866536       0.99999955    6.4387687e-10
      0.39360079       0.99999954    6.7841386e-10
      0.39738542       0.99999953    7.0583833e-10
      0.40254627       0.99999952    7.4457725e-10
      0.40784293       0.99999951    7.8598880e-10
      0.41328083       0.99999950    8.2131706e-10
      0.41980318       0.99999948    8.7598123e-10
      0.42659192       0.99999946    9.3573536e-10
      0.43349166       0.99999945    9.9954006e-10
      0.44050398       0.99999943    1.0676594e-09
      0.44762889       0.99999941    1.1403818e-09
      0.45486789       0.99999939    1.2180077e-09
      0.46222594       0.99999937    1.3008840e-09
      0.46970136       0.99999935    1.3893468e-09
      0.47729941       0.99999933    1.4837886e-09
      0.48501827       0.99999930    1.5845874e-09
      0.49286350       0.99999928    1.6921873e-09
      0.50083517       0.99999926    1.8070330e-09
      0.50893521       0.99999923    1.9296096e-09
      0.51716777       0.99999921    2.0604494e-09
      0.52553291       0.99999918    2.2000856e-09
      0.53403276       0.99999916    2.3491057e-09
      0.54266953       0.99999913    2.5081468e-09
      0.55144796       0.99999910    2.6778910e-09
      0.56036559       0.99999907    2.8590050e-09
      0.56942990       0.99999904    3.0523095e-09
      0.57864100       0.99999901    3.2585874e-09
      0.58799880       0.99999898    3.4786777e-09
      0.59750870       0.99999894    3.7135356e-09
      0.60717364       0.99999891    3.9641553e-09
      0.61699362       0.99999887    4.2315530e-09
      0.62697472       0.99999884    4.5169897e-09
      0.63711376       0.99999880    4.8211731e-09
      0.64742043       0.99999876    5.1455826e-09
      0.65789146       0.99999872    5.4914515e-09
      0.66853007       0.99999868    5.8601882e-09
      0.67934342       0.99999863    6.2533688e-09
      0.69033162       0.99999859    6.6725604e-09
      0.70149851       0.99999854    7.1194839e-09
      0.71284403       0.99999849    7.5958846e-09
      0.72437208       0.99999844    8.1037143e-09
      0.73609116       0.99999839    8.6451658e-09
      0.74799704       0.99999834    9.2222580e-09
      0.76009398       0.99999829    9.8373623e-09
      0.77238648       0.99999823    1.0492968e-08
      0.78487934       0.99999817    1.1191792e-08
      0.79757256       0.99999811    1.1936552e-08
      0.81047641       0.99999805    1.2730454e-08
      0.82358578       0.99999799    1.3576447e-08
      0.83690582       0.99999792    1.4477992e-08
      0.85044208       0.99999785    1.5438722e-08
      0.86419445       0.99999778    1.6462530e-08
      0.87817493       0.99999771    1.7553472e-08
      0.89237748       0.99999763    1.8715995e-08
      0.90680814       0.99999756    1.9954464e-08
      0.92148028       0.99999748    2.1274543e-08
      0.93638035       0.99999739    2.2680649e-08
      0.95152916       0.99999731    2.4178897e-08
      0.96691974       0.99999722    2.5775176e-08
      0.98255934       0.99999713    2.7475664e-08
      0.99844778       0.99999703    2.9287105e-08
       1.0146011       0.99999694    3.1217193e-08
       1.0310112       0.99999683    3.3272843e-08
       1.0476863       0.99999673    3.5462838e-08
       1.0646263       0.99999662    3.7794999e-08
       1.0818492       0.99999651    4.0279893e-08
       1.0993461       0.99999640    4.2925990e-08
       1.1171262       0.99999628    4.5744666e-08
       1.1351998       0.99999616    4.8746783e-08
       1.1535565       0.99999603    5.1943697e-08
       1.1722173       0.99999590    5.5348550e-08
       1.1911712       0.99999576    5.8974037e-08
       1.2104409       0.99999562    6.2835399e-08
       1.2300147       0.99999548    6.6946542e-08
       1.2499143       0.99999533    7.1325462e-08
       1.2701300       0.99999518    7.5987048e-08
       1.2906731       0.99999502    8.0950839e-08
       1.3115488       0.99999486    8.6236541e-08
       1.3327627       0.99999469    9.1862094e-08
       1.3543190       0.99999451    9.7851919e-08
       1.3762235       0.99999433    1.0423031e-07
       1.3984837       0.99999414    1.1101802e-07
       1.4211027       0.99999395    1.1824535e-07
       1.4440886       0.99999375    1.2593897e-07
       1.4674446       0.99999355    1.3412617e-07
       1.4911793       0.99999333    1.4284227e-07
       1.5152979       0.99999311    1.5211809e-07
       1.5398059       0.99999289    1.6199057e-07
       1.5647129       0.99999265    1.7249978e-07
       1.5900207       0.99999241    1.8368134e-07
       1.6157373       0.99999216    1.9558168e-07
       1.6418710       0.99999190    2.0824297e-07
       1.6684261       0.99999163    2.2171681e-07
       1.6954114       0.99999136    2.3605686e-07
       1.7228338       0.99999107    2.5130899e-07
       1.7507004       0.99999078    2.6753857e-07
       1.7790160       0.99999047    2.8480601e-07
       1.8077907       0.99999016    3.0317068e-07
       1.8370296       0.99998984    3.2271181e-07
       1.8667407       0.99998950    3.4350105e-07
       1.8969351       0.99998915    3.6560245e-07
       1.9276158       0.99998880    3.8910608e-07
       1.9528154       0.99998850    4.0926119e-07
       1.9691229       0.99998830    4.2267349e-07
       2.0009724       0.99998792    4.4980411e-07
       2.0333387       0.99998752    4.7866106e-07
       2.0662251       0.99998711    5.0935502e-07
       2.0996450       0.99998668    5.4199266e-07
       2.1336056       0.99998624    5.7668107e-07
       2.1681140       0.99998579    6.1356618e-07
       2.2031813       0.99998532    6.5278460e-07
       2.2388153       0.99998484    6.9447878e-07
       2.2750280       0.99998434    7.3879982e-07
       2.3118235       0.99998383    7.8589083e-07
       2.3492143       0.99998329    8.3595409e-07
       2.3872139       0.99998275    8.8914534e-07
       2.4258220       0.99998218    9.4569124e-07
       2.4650573       0.99998159    1.0058104e-06
       2.5049297       0.99998099    1.0696314e-06
       2.5454440       0.99998036    1.1374550e-06
       2.5866157       0.99997972    1.2095030e-06
       2.6284500       0.99997906    1.2860507e-06
       2.6709634       0.99997837    1.3674016e-06
       2.7141673       0.99997766    1.4537715e-06
       2.7580678       0.99997693    1.5455123e-06
       2.8026767       0.99997618    1.6429451e-06
       2.8480063       0.99997540    1.7463632e-06
       2.8940694       0.99997460    1.8562146e-06
       2.9408796       0.99997377    1.9728140e-06
       2.9884436       0.99997292    2.0965809e-06
       3.0367828       0.99997203    2.2280580e-06
       3.0858972       0.99997113    2.3674939e-06
       3.1358092       0.99997019    2.5155430e-06
       3.1865267       0.99996923    2.6726507e-06
       3.2380660       0.99996823    2.8392963e-06
       3.2904438       0.99996721    3.0162335e-06
       3.3436600       0.99996615    3.2037691e-06
       3.3977410       0.99996506    3.4027660e-06
       3.4526962       0.99996394    3.6139178e-06
       3.5085447       0.99996279    3.8376674e-06
       3.5652963       0.99996160    4.0750564e-06
       3.6229611       0.99996037    4.3266814e-06
       3.6815596       0.99995911    4.5933817e-06
       3.7411024       0.99995782    4.8762835e-06
       3.8016119       0.99995649    5.1758330e-06
       3.8630996       0.99995512    5.4933760e-06
       3.9255771       0.99995371    5.8298735e-06
       3.9890817       0.99995226    6.1861772e-06
       4.0536010       0.99995078    6.5637688e-06
       4.1191602       0.99994925    6.9635033e-06
       4.1857864       0.99994769    7.3867397e-06
       4.2534795       0.99994608    7.8350856e-06
       4.3222828       0.99994444    8.3093968e-06
       4.3921968       0.99994275    8.8115818e-06
       4.4632366       0.99994103    9.3426520e-06
       4.5354173       0.99993927    9.9045380e-06
       4.6087715       0.99993746    1.0499554e-05
       4.6833166       0.99993562    1.1127759e-05
       4.7590703       0.99993375    1.1792362e-05
       4.8360507       0.99993184    1.2495428e-05
       4.9142571       0.99992990    1.3237296e-05
       4.9937470       0.99992792    1.4022131e-05
       5.0745210       0.99992592    1.4851169e-05
       5.1565996       0.99992390    1.5726239e-05
       5.2400036       0.99992186    1.6651012e-05
       5.3247547       0.99991981    1.7625926e-05
       5.4108751       0.99991776    1.8655581e-05
       5.4983880       0.99991572    1.9741406e-05
       5.5873174       0.99991369    2.0886037e-05
       5.6776884       0.99991171    2.2094528e-05
       5.7695270       0.99990978    2.3367171e-05
       5.8628325       0.99990794    2.4707993e-05
       5.9576592       0.99990622    2.6121901e-05
       6.0540367       0.99990467    2.7593650e-05
       6.1519349       0.99990337    2.9146315e-05
       6.2514433       0.99990244    3.0781854e-05
       6.3525634       0.99990206    3.2504558e-05
       6.4553276       0.99990263    3.4323641e-05
       6.5597356       0.99990503    3.6243900e-05
       6.6658199       0.99991257    3.8270899e-05
       6.7419386       0.99997300    2.1679405e-05
       6.7423052       0.99992376    3.9776575e-05
       6.7426719       0.99997299    3.5280333e-06
       6.8310882       0.99990832    3.6934035e-06
       6.8344395       0.99990779    3.7004791e-06
       6.9449626       0.99989607    3.9395621e-06
       7.0573109       0.99988790    4.1931037e-06
       7.1714453       0.99988095    4.4617362e-06
       7.2874470       0.99987454    4.7413666e-06
       7.4053164       0.99986839    5.0385187e-06
       7.5250970       0.99986235    5.3543303e-06
       7.6467876       0.99985634    5.6899068e-06
       7.7704816       0.99985031    6.0465201e-06
       7.8961807       0.99984420    6.4254278e-06
       8.0238838       0.99983800    6.8281392e-06
       8.1536400       0.99983169    7.2554510e-06
       8.2855572       0.99982524    7.7089614e-06
       8.4195256       0.99981863    8.1799095e-06
       8.5557124       0.99981185    8.6795774e-06
       8.6941209       0.99980489    9.2098262e-06
       8.8347513       0.99979773    9.7717507e-06
       8.9776002       0.99979036    1.0366865e-05
       9.1228616       0.99978278    1.0997404e-05
       9.2704050       0.99977496    1.1666180e-05
       9.4203650       0.99976691    1.2375364e-05
       9.5726689       0.99975861    1.3127025e-05
       9.7275356       0.99975004    1.3921260e-05
       9.8848941       0.99974121    1.4763316e-05
       10.044741       0.99973208    1.5656165e-05
       10.207237       0.99972266    1.6603306e-05
       10.372300       0.99971294    1.7606393e-05
       10.540100       0.99970289    1.8668891e-05
       10.710550       0.99969251    1.9794646e-05
       10.883736       0.99968179    2.0988248e-05
       11.059851       0.99967069    2.2254579e-05
       11.238703       0.99965920    2.3595343e-05
       11.420489       0.99964728    2.5064324e-05
       11.605209       0.99963500    2.6694114e-05
       11.792862       0.99962234    2.8429651e-05
       11.983670       0.99960928    3.0278702e-05
       12.177405       0.99959581    3.2246905e-05
       12.374419       0.99958189    3.4343965e-05
       12.574570       0.99956753    3.6574848e-05
       12.777943       0.99955272    3.8948983e-05
       12.984615       0.99953743    4.1477097e-05
       13.194643       0.99952165    4.4169428e-05
       13.408051       0.99950539    4.7036277e-05
       13.624912       0.99948864    5.0089240e-05
       13.845285       0.99947146    5.3265910e-05
       14.069215       0.99945366    5.6509364e-05
       14.296780       0.99943523    5.9950418e-05
       14.528014       0.99941619    6.3600567e-05
       14.763000       0.99939653    6.7473303e-05
       15.001773       0.99937623    7.1582010e-05
       15.244421       0.99935529    7.5940388e-05
       15.490983       0.99933374    8.0564358e-05
       15.741533       0.99931157    8.5282417e-05
       15.996151       0.99928855    9.0200070e-05
       16.254879       0.99926472    9.5401601e-05
       16.517777       0.99924008    0.00010090256
       16.784932       0.99921458    0.00010672080
       17.056435       0.99918820    0.00011287462
       17.332310       0.99916091    0.00011938369
       17.612625       0.99913265    0.00012626681
       17.897505       0.99910328    0.00013366719
       18.186976       0.99907298    0.00014175403
       18.481142       0.99904188    0.00015032988
       18.780058       0.99900981    0.00015942553
       19.083807       0.99897674    0.00016907102
       19.392477       0.99894265    0.00017929967
       19.706127       0.99890751    0.00019014782
       20.024881       0.99887131    0.00020165269
       20.348738       0.99883403    0.00021385190
       20.677861       0.99879567    0.00022679039
       21.012321       0.99875631    0.00024051196
       21.352187       0.99871592    0.00025482196
       21.697531       0.99867423    0.00026958112
       22.048465       0.99863108    0.00028519569
       22.405105       0.99858654    0.00030171607
       22.767492       0.99854061    0.00031919225
       23.135706       0.99849327    0.00033767901
       23.509917       0.99844449    0.00035723803
       23.890170       0.99839426    0.00037793070
       24.276602       0.99834255    0.00039982100
       24.669211       0.99828934    0.00042297798
       25.068239       0.99823461    0.00044747906
       25.473686       0.99817837    0.00047339612
       25.885706       0.99812059    0.00050081735
       26.304408       0.99806138    0.00052982573
       26.729846       0.99800093    0.00056051377
       27.162188       0.99793894    0.00059210825
       27.601493       0.99787494    0.00062525251
       28.047943       0.99780903    0.00066025516
       28.501602       0.99774126    0.00069721717
       28.962598       0.99767168    0.00073624611
       29.431066       0.99760027    0.00077746272
       29.907071       0.99752706    0.00082098345
       30.390755       0.99745208    0.00086693838
       30.882338       0.99737533    0.00091547360
       31.381824       0.99729691    0.00096671993
       31.889363       0.99721691     0.0010208343
       32.405203       0.99713540     0.0010779842
       32.929344       0.99705262     0.0011383277
       33.461958       0.99696984     0.0012020515
       34.003129       0.99688776     0.0012680135
       34.553135       0.99680302     0.0013323666
       35.111976       0.99671455     0.0013999839
       35.679845       0.99662339     0.0014710275
       36.256945       0.99652982     0.0015456846
       36.843384       0.99643403     0.0016241297
       37.439267       0.99633607     0.0017065510
       38.044816       0.99623609     0.0017931595
       38.660267       0.99613415     0.0018841724
       39.285499       0.99603038     0.0019797881
       39.920873       0.99592499     0.0020802563
       40.566647       0.99581817     0.0021858431
       41.222691       0.99571097     0.0022967643
       41.889543       0.99560288     0.0024116429
       42.567069       0.99549289     0.0025300366
       43.255551       0.99538038     0.0026542408
       43.955135       0.99526614     0.0027845423
       44.666132       0.99515047     0.0029212502
       45.388542       0.99503370     0.0030646559
       46.122691       0.99491616     0.0032151170
       46.868574       0.99479820     0.0033729397
       47.626717       0.99468026     0.0035385391
       48.396940       0.99456316     0.0037122414
       49.179803       0.99444795     0.0038944951
       49.975311       0.99433769     0.0040842070
       50.783455       0.99422918     0.0042735079
       51.604844       0.99411700     0.0044716154
       52.439708       0.99400521     0.0046789430
       53.287825       0.99389532     0.0048958346
       54.149634       0.99378871     0.0051227797
       55.025364       0.99368808     0.0053602341
       55.915507       0.99360028     0.0056087514
       56.819817       0.99351964     0.0058396991
       57.738797       0.99343170     0.0060745827
       58.672716       0.99333505     0.0063189250
       59.621858       0.99323664     0.0065731210
       60.586222       0.99313439     0.0068375176
       61.566088       0.99302536     0.0071181613
       62.561750       0.99292253     0.0074200979
       63.573516       0.99282723     0.0077348463
       64.602048       0.99273554     0.0080630433
       65.646675       0.99264774     0.0084050259
       66.708768       0.99255522     0.0087522705
       67.787628       0.99240626     0.0091114503
       68.883966       0.99245577     0.0094853854
       69.072006       0.99232890     0.0094763800
       69.264944       0.99228427     0.0095857305
       69.458964       0.99218366     0.0096626799
       69.654073       0.99216245     0.0098087108
       70.047599       0.99206278     0.0099777209
       70.246034       0.99203053      0.010100812
       70.445597       0.99197203      0.010263132
       70.848143       0.99189850      0.010544028
       71.051146       0.99187995      0.010758097
       71.255316       0.99187182      0.010892041
       71.460663       0.99191408      0.011200507
       71.667197       0.99201819      0.011285126
       71.874928       0.99207038      0.011456982
       72.083866       0.99207892      0.011537469
       72.294023       0.99215236      0.011831339
       72.931912       0.99253669      0.012226443
       73.363462       0.99280066      0.012406681
       74.020448       0.99323659      0.012571648
       74.242066       0.99327485      0.012506086
       74.465015       0.99330799      0.012632545
       74.914955       0.99349377      0.012716799
       75.370365       0.99369196      0.012832185
       75.831346       0.99388294      0.012870054
       76.298000       0.99406252      0.012867575
       77.490156       0.99421215      0.012773861
       77.977516       0.99425802      0.012795942
       78.223502       0.99429530      0.012874058
       78.471044       0.99433967      0.012792470
       78.720159       0.99427390      0.012780159
       79.223163       0.99424132      0.012857255
       79.477083       0.99417446      0.012844614
       79.732637       0.99409028      0.012894111
       79.989839       0.99396962      0.012984476
       80.248706       0.99387053      0.013135952
       80.771498       0.99385649      0.013682422
       81.301148       0.99422439      0.014111286
       81.568586       0.99446987      0.014169126
       81.837789       0.99468698      0.014101684
       82.108775       0.99476096      0.013973012
       82.381561       0.99473801      0.013914395
       82.656167       0.99467582      0.013948111
       82.932609       0.99466907      0.014068433
       83.491077       0.99477393      0.014247952
       83.773142       0.99485743      0.014288801
       84.057119       0.99492173      0.014369599
       84.343027       0.99499653      0.014386724
       84.630887       0.99505463      0.014441875
       84.920719       0.99510858      0.014449920
       85.212543       0.99516616      0.014516498
       85.506379       0.99523107      0.014493276
       86.100174       0.99526891      0.014545340
       86.702273       0.99519999      0.014515063
       87.006491       0.99516650      0.014635090
       87.312852       0.99513666      0.014722066
       87.621378       0.99514720      0.014862748
       88.245018       0.99527334      0.015052009
       88.560179       0.99530682      0.015065194
       88.877599       0.99528906      0.015127693
       90.170364       0.99512015      0.015463656
       90.499453       0.99503977      0.015718865
       90.830952       0.99499992      0.015930225
       91.164890       0.99501919      0.016177755
       92.181599       0.99531461      0.017185081
       92.872097       0.99584743      0.017758653
       93.221241       0.99620263      0.017937460
       94.284601       0.99713485      0.018127276
       95.372500       0.99785901      0.018067326
       95.740734       0.99808022      0.018008684
       96.485798       0.99837948      0.018016059
       97.242549       0.99866286      0.017996453
       97.625394       0.99885164      0.018055408
       99.187400       0.99939133      0.018195711
       99.585743       0.99964234      0.018320822
       99.987298       0.99983605      0.018305875
       100.39211        1.0000560      0.018395726
       101.62643        1.0008818      0.018508598
       102.04465        1.0012564      0.018490578
       102.10095        1.0012691      0.018482705
       103.75251        1.0021749      0.018257874
       104.18845        1.0026043      0.018329167
       104.62806        1.0029634      0.018145906
       105.07140        1.0033910      0.018058978
       105.51851        1.0037770      0.017798392
       105.96944        1.0042026      0.017496235
       107.34567        1.0047614      0.016305813
       107.81239        1.0048682      0.015947608
       108.28319        1.0048468      0.015630042
       108.75811        1.0047929      0.015347008
       110.20822        1.0049810      0.014978237
       111.19664        1.0052827      0.014614018
       111.69752        1.0054385      0.014331988
       112.20294        1.0055200      0.013997952
       112.71295        1.0055745      0.013738417
       112.74370        1.0055071      0.013703885
       112.91826        1.0055169      0.013651164
       113.05211        1.0054547      0.013593479
       113.10368        1.0054848      0.013566791
       113.12432        1.0054860      0.013588168
       113.15529        1.0054934      0.013546376
       113.17595        1.0054829      0.013564396
       113.19661        1.0055096      0.013527253
       113.27935        1.0054427      0.013520371
       113.30005        1.0054627      0.013481388
       113.33112        1.0054394      0.013498920
       113.35185        1.0054316      0.013476113
       113.38294        1.0054279      0.013505666
       113.46596        1.0053843      0.013517162
       113.48673        1.0054210      0.013551058
       113.53869        1.0054379      0.013519488
       113.62193        1.0054363      0.013520299
       113.67402        1.0054280      0.013488067
       113.71572        1.0054261      0.013534219
       113.74702        1.0054430      0.013540907
       113.85147        1.0055108      0.013553347
       113.92470        1.0055478      0.013499191
       114.02948        1.0055500      0.013488563
       114.16598        1.0056508      0.013524988
       114.19752        1.0056562      0.013498896
       114.25014        1.0057038      0.013498339
       114.32388        1.0057482      0.013433961
       114.35552        1.0057498      0.013433496
       114.50337        1.0058293      0.013400206
       114.56685        1.0058867      0.013342193
       114.72587        1.0059775      0.013287974
       114.85340        1.0060860      0.013203107
       114.87469        1.0060631      0.013151516
       114.92793        1.0060723      0.013117194
       114.95990        1.0060380      0.013080185
       115.06659        1.0061114      0.013062061
       115.08795        1.0060837      0.013032210
       115.15209        1.0061329      0.013025045
       115.20558        1.0061453      0.012984331
       115.22700        1.0061721      0.012936562
       115.24842        1.0061566      0.012949422
       115.28057        1.0061951      0.012934162
       115.30201        1.0061963      0.012894983
       115.33419        1.0061929      0.012878888
       115.42008        1.0062023      0.012855930
       115.44157        1.0062429      0.012805246
       115.49534        1.0062257      0.012802347
       115.52763        1.0062304      0.012776753
       115.54916        1.0062448      0.012777723
       115.57070        1.0062514      0.012748077
       115.65695        1.0062624      0.012769698
       115.68933        1.0062895      0.012738399
       115.71092        1.0063400      0.012739774
       115.87313        1.0063594      0.012637554
       115.90563        1.0064260      0.012651797
       115.95983        1.0064537      0.012596499
       116.01408        1.0065233      0.012571890
       116.09012        1.0065553      0.012467512
       116.14450        1.0066024      0.012433477
       116.19892        1.0066178      0.012351461
       116.25340        1.0066422      0.012303997
       116.28611        1.0066423      0.012263906
       116.36251        1.0066666      0.012203676
       116.47182        1.0067529      0.012105769
       116.49370        1.0067465      0.012055516
       116.52655        1.0067448      0.012043081
       116.61423        1.0067967      0.011930063
       116.66910        1.0068184      0.011898282
       116.71303        1.0068340      0.011810896
       116.85603        1.0068231      0.011694044
       116.88908        1.0068512      0.011692896
       116.93318        1.0069062      0.011647412
       116.99939        1.0069923      0.011571263
       117.10990        1.0071603      0.011303554
       117.13203        1.0071686      0.011216100
       117.20954        1.0070937      0.010980399
       117.24279        1.0070843      0.010925905
       117.37598        1.0069330      0.010629591
       117.40933        1.0069221      0.010583755
       117.46495        1.0068489      0.010460700
       117.52062        1.0067731      0.010361862
       117.59864        1.0066506      0.010256896
       117.68794        1.0065256      0.010135756
       117.72147        1.0064562      0.010125927
       117.79976        1.0063658      0.010033145
       117.87816        1.0062572     0.0099722769
       117.91179        1.0062018     0.0099348658
       118.04651        1.0060000     0.0098635467
       118.13649        1.0058837     0.0098401905
       118.15901        1.0058791     0.0097959926
       118.19280        1.0058425     0.0097944512
       118.30558        1.0056207     0.0097265457
       118.36205        1.0055472     0.0097633419
       118.38466        1.0055241     0.0097507615
       118.47516        1.0054265     0.0097745353
       118.56579        1.0053346     0.0097568017
       118.61116        1.0052913     0.0097386271
       118.64522        1.0052391     0.0097414345
       118.67929        1.0051994     0.0097229298
       118.72474        1.0051234     0.0097490098
       118.89552        1.0049212     0.0097417001
       118.96397        1.0048313     0.0097514605
       119.10110        1.0046625     0.0098995908
       119.21562        1.0045956     0.0099753529
       119.35334        1.0045265      0.010012444
       119.44533        1.0044461      0.010005814
       119.56051        1.0042931      0.010020038
       119.65282        1.0041481      0.010101985
       119.67592        1.0041004      0.010108513
       119.73370        1.0039911      0.010184926
       119.84944        1.0038137      0.010406056
       119.87262        1.0037299      0.010522056
       119.96541        1.0037622      0.010784502
       120.00024        1.0038153      0.010843439
       120.04672        1.0038557      0.010997770
       120.13978        1.0040181      0.011104232
       120.23298        1.0041440      0.011133577
       120.37306        1.0041059      0.011079235
       120.43152        1.0040586      0.011128255
       120.51346        1.0039728      0.011248990
       120.63072        1.0039572      0.011528865
       120.72468        1.0040437      0.011778194
       120.78349        1.0041845      0.011921110
       120.84235        1.0043647      0.011992362
       120.90127        1.0045580      0.011979264
       120.92485        1.0046353      0.011925794
       121.01928        1.0047021      0.011694798
       121.07837        1.0046379      0.011604345
       121.13752        1.0045318      0.011559378
       121.19673        1.0044089      0.011588858
       121.25599        1.0043232      0.011660633
       121.33906        1.0041522      0.011726972
       121.37469        1.0040616      0.011800585
       121.43413        1.0039760      0.012003093
       121.49363        1.0038805      0.012109699
       121.51745        1.0038138      0.012214723
       121.55319        1.0037256      0.012364830
       121.61280        1.0037535      0.012726981
       121.67247        1.0037698      0.012877746
       121.69636        1.0037237      0.013049030
       121.76807        1.0037883      0.013424696
       121.85184        1.0039206      0.013879441
       121.97172        1.0042364      0.014587365
       121.99572        1.0042715      0.014805738
       122.03174        1.0044227      0.015001598
       122.15197        1.0051867      0.015796163
       122.21217        1.0056985      0.016140729
       122.27244        1.0063240      0.016331184
       122.29656        1.0065646      0.016374055
       122.36898        1.0072617      0.016387560
       122.45358        1.0079564      0.016282250
       122.73238        1.0097923      0.016234229
       122.75668        1.0100158      0.016271863
       122.87834        1.0113311      0.016281982
       122.93927        1.0121456      0.016142083
       123.00025        1.0129708      0.015750770
       123.03687        1.0134880      0.015483636
       123.06129        1.0138241      0.015164812
       123.12239        1.0143134      0.014342112
       123.14685        1.0145020      0.013931497
       123.22028        1.0148125      0.013539526
       123.24478        1.0150593      0.013128941
       123.30607        1.0153786      0.012379762
       123.36741        1.0156045      0.011683617
       123.39197        1.0156762      0.011301312
       123.42882        1.0156947      0.010890036
       123.51489        1.0156618     0.0096958921
       123.55182        1.0154993     0.0093611654
       123.61341        1.0152418     0.0087823887
       123.63806        1.0151307     0.0085982426
       123.67506        1.0149542     0.0084375354
       123.71208        1.0148850     0.0083271417
       123.76148        1.0148316     0.0080508663
       123.83565        1.0148482     0.0078003108
       123.94707        1.0150517     0.0071192564
       123.98425        1.0151227     0.0069015848
       124.01649        1.0152112     0.0066625066
       124.04503        1.0153048     0.0063945650
       124.07607        1.0153583     0.0060906643
       124.10960        1.0154538     0.0057706263
       124.13942        1.0155269     0.0053840832
       124.16926        1.0155477     0.0049391297
       124.20036        1.0154856     0.0044646306
       124.26384        1.0151290     0.0035010325
       124.29623        1.0148634     0.0030617664
       124.32490        1.0145563     0.0026462245
       124.35857        1.0141182     0.0023070803
       124.38726        1.0137221     0.0020516412
       124.42097        1.0132628     0.0018955155
       124.44969        1.0129019     0.0017994769
       124.48093        1.0125557     0.0017458303
       124.51218        1.0122319     0.0017009841
       124.54595        1.0119195     0.0016906690
       124.57724        1.0116546     0.0016908735
       124.60729        1.0114510     0.0017066701
       125.00265        1.0094756     0.0017024414
       127.02445        1.0051826     0.0016811757
       129.07900        1.0029506     0.0016855539
       131.16667        1.0013286     0.0016962817
       133.28816       0.99999396     0.0017070771
       135.44403       0.99881476     0.0017179483
       137.63472       0.99773508     0.0017402035
       139.86083       0.99672895     0.0017683492
       142.12298       0.99576842     0.0017969528
       144.42181       0.99483640     0.0018260181
       146.75766       0.99389257     0.0018555534
       149.13138       0.99295422     0.0019346661
       151.54350       0.99205064     0.0020201654
       153.99455       0.99114360     0.0021094362
       156.48531       0.99019852     0.0022026608
       159.01635       0.98926961     0.0024031313
       161.58826       0.98836920     0.0026237354
       164.20189       0.98752496     0.0028645915
       166.85766       0.98673761     0.0030841922
       169.55644       0.98593106     0.0032644413
       172.29894       0.98511166     0.0034552254
       175.08561       0.98431299     0.0036571605
       177.91743       0.98354787     0.0038069593
       180.79515       0.98273740     0.0039023900
       183.71929       0.98188648     0.0040002114
       186.69093       0.98100945     0.0041004917
       189.71035       0.98012175     0.0042032651
       192.77897       0.97921707     0.0042459930
       195.89678       0.97824562     0.0042844013
       199.06532       0.97722685     0.0043231645
       202.28522       0.97616155     0.0043622817
       205.55679       0.97504468     0.0044017451
       208.88172       0.97386423     0.0044488420
       212.26000       0.97264018     0.0045576471
       215.69343       0.97140312     0.0046691335
       219.18201       0.97013712     0.0047833308
       222.72686       0.96883342     0.0049003174
       226.32958       0.96748848     0.0050201944
       229.99017       0.96609854     0.0051429721
       233.70986       0.96465544     0.0052687479
       237.48997       0.96316083     0.0054215340
       241.33140       0.96162638     0.0055886566
       245.23462       0.96005657     0.0057609098
       249.20105       0.95843955     0.0059384840
       253.23167       0.95677343     0.0061215424
       257.32750       0.95505594     0.0063102260
       261.48960       0.95328476     0.0065047356
       265.71906       0.95146175     0.0067052525
       270.01701       0.94958208     0.0069076674
       274.38400       0.94763843     0.0071068273
       278.82243       0.94562572     0.0073117556
       283.33170       0.94354423     0.0075225585
       287.91431       0.94139145     0.0077394621
       292.57163       0.93916471     0.0079626529
       297.30366       0.93686259     0.0081922283
       302.11176       0.93448272     0.0084284172
       306.99809       0.93202111     0.0086714250
       311.96422       0.92949942     0.0089214849
       317.00933       0.92689358     0.0091411584
       322.13742       0.92416589     0.0093427100
       327.34770       0.92132127     0.0095486781
       332.64181       0.91836057     0.0097591427
       338.02240       0.91527943     0.0099743137
       343.48949       0.91207350      0.010194176
       349.04493       0.90873732      0.010418895
       354.69066       0.90526360      0.010648595
       360.42771       0.90164587      0.010883371
       366.25709       0.89787626      0.011123264
       372.18090       0.89394518      0.011368493
       378.20024       0.88984240      0.011619075
       384.31739       0.88555314      0.011875213
       390.53356       0.88104956      0.012137022
       396.84992       0.87634267      0.012469419
       403.26901       0.87144262      0.012838007
       409.79214       0.86636106      0.013217529
       416.41925       0.86105698      0.013608161
       423.15444       0.85551266      0.014010387
       427.517      0.909000     0.0541000
       442.786      0.899000     0.0579000
       459.185      0.888000     0.0623000
       476.846      0.876000     0.0675000
       495.920      0.862000     0.0737000
       516.583      0.846000     0.0812000
       539.043      0.828000     0.0903000
       563.545      0.808000      0.101000
       590.381      0.785000      0.115000
       619.900      0.758000      0.132000
       652.526      0.727000      0.154000
       688.778      0.691000      0.181000
       729.294      0.651000      0.216000
       774.875      0.603000      0.261000
       826.533      0.549000      0.321000
       885.571      0.485000      0.403000
       953.692      0.410000      0.519000
       1033.17      0.327000      0.726000
       1078.09      0.363000      0.847000
       1127.09      0.392000      0.946000
       1180.76      0.423000       1.04000
       1239.80      0.459000       1.14000
       1305.05      0.497000       1.24000
       1377.56      0.543000       1.35000
       1458.59      0.597000       1.47000
       1549.75      0.660000       1.60000
       1653.07      0.735000       1.74000
       1771.14      0.832000       1.89000
       1907.38      0.951000       2.07000
       2066.33       1.11000       2.28000
       2254.18       1.35000       2.51000
       2479.60       1.69000       2.76000
       2582.92       1.86000       2.85000
       2695.22       2.07000       2.93000
       2817.73       2.30000       2.99000
       2951.90       2.56000       3.04000
       3099.50       2.87000       3.06000
       3262.63       3.21000       3.00000
       3443.89       3.55000       2.88000
       3542.29       3.73000       2.79000
       3646.47       3.90000       2.66000
       3874.38       4.17000       2.38000
       4132.67       4.38000       2.02000
       4427.86       4.47000       1.64000
       4768.46       4.49000       1.28000
       4959.20       4.47000       1.12000
       5165.83       4.46000      0.969000
       5635.45       4.36000      0.690000
       6199.00       4.23000      0.461000
       6525.26       4.17000      0.363000
       6887.78       4.09000      0.271000
       7292.94       4.01000      0.199000
       7748.75       3.93000      0.136000
       8265.33       3.86000     0.0812000
       8855.71       3.77000     0.0401000
       9536.92       3.68000       0.00000
       10331.7       3.61000       0.00000
       11270.9       3.57000       0.00000
       12398.0       3.54000       0.00000
       13775.6       3.50000       0.00000
       15497.5       3.48000       0.00000
       17711.4       3.45000       0.00000
       20663.3       3.44000       0.00000
       24726.8       3.88000       0.00000
       25199.2       3.87000       0.00000
       26278.1       3.86000       0.00000
       28138.9       3.86000       0.00000
       29505.0       3.85000       0.00000
       31182.1       3.85000       0.00000
       32825.0       3.84000       0.00000
       34173.1       3.85000       0.00000
       35853.1       3.84000       0.00000
       37186.6       3.84000       0.00000
       38419.6       3.82000       0.00000
       40084.1       3.84000       0.00000
       43410.4       3.84000       0.00000
       44294.4       3.81000       0.00000
       45884.5       3.81000       0.00000
       48868.7       3.80000       0.00000
       53301.8       3.80000       0.00000
       54640.8       3.79000       0.00000
       56663.6       3.80000       0.00000
       60330.9       3.79000       0.00000
       64877.0       3.79000       0.00000
       70764.8       3.78000       0.00000
       77390.8       3.77000       0.00000
       83883.6       3.75000       0.00000
       87494.7       3.72000       0.00000
       96557.6       3.71000       0.00000
       104713.       3.74000       0.00000
       112098.       3.75000       0.00000
       122874.       3.75000       0.00000
       129456.       3.73000       0.00000
       140966.       3.73000       0.00000
       157036.       3.73000       0.00000
       167292.       3.67000    0.00283000
       179473.       3.62000       0.00000
       208265.       3.62000       0.00000
       237237.       3.62000       0.00000
       275756.       3.68000       0.00000
       355142.       3.74000       0.00000
