;  Optical constants for AlN.
;  Density = 3.2600000 g/cm3
;   
;  Computed from the atomic scattering factors from 
;  CXRO <http://www-cxro.lbl.gov> and
;  LLNL <http://www-phys.llnl.gov/V_Div/scattering/asf.html>.
;   
;  Lambda (A) n k
      0.12398425       0.99999993    4.0732965e-12
      0.12523662       0.99999993    4.2503404e-12
      0.12848109       0.99999993    4.7362618e-12
      0.13050974       0.99999993    5.0606329e-12
      0.13189814       0.99999993    5.2929417e-12
      0.13550191       0.99999992    5.9328439e-12
      0.13776028       0.99999992    6.3620973e-12
      0.13930815       0.99999992    6.6703546e-12
      0.14333439       0.99999991    7.5256260e-12
      0.14586382       0.99999991    8.1035924e-12
      0.14760030       0.99999991    8.5201172e-12
      0.14937861       0.99999990    8.9629188e-12
      0.15212791       0.99999990    9.6828942e-12
      0.15634836       0.99999990    1.0871430e-11
      0.15774078       0.99999989    1.1286948e-11
      0.16078881       0.99999989    1.2239214e-11
      0.16078881       0.99999989    1.2239214e-11
      0.16421755       0.99999988    1.3382870e-11
      0.16540055       0.99999988    1.3795265e-11
      0.16709468       0.99999988    1.4404104e-11
      0.17030804       0.99999988    1.5613465e-11
      0.17220035       0.99999987    1.6359909e-11
      0.17462570       0.99999987    1.7358228e-11
      0.17968732       0.99999986    1.9588105e-11
      0.18232978       0.99999986    2.0834106e-11
      0.18232978       0.99999986    2.0834106e-11
      0.18395289       0.99999985    2.1629715e-11
      0.18552185       0.99999985    2.2420032e-11
      0.18552185       0.99999985    2.2420032e-11
      0.19074500       0.99999984    2.5211937e-11
      0.19680040       0.99999983    2.8772588e-11
      0.19680040       0.99999983    2.8772588e-11
      0.20160041       0.99999983    3.1857878e-11
      0.20160041       0.99999983    3.1857878e-11
      0.20664042       0.99999982    3.5362899e-11
      0.20823690       0.99999981    3.6529625e-11
      0.20823690       0.99999981    3.6529625e-11
      0.21193889       0.99999981    3.9347972e-11
      0.21376595       0.99999980    4.0799118e-11
      0.21828213       0.99999980    4.4561111e-11
      0.22140045       0.99999979    4.7306580e-11
      0.22542591       0.99999978    5.1041810e-11
      0.22542591       0.99999978    5.1041810e-11
      0.22960046       0.99999977    5.5148931e-11
      0.23393255       0.99999976    5.9672617e-11
      0.23393255       0.99999976    5.9672617e-11
      0.23843125       0.99999976    6.4664567e-11
      0.23843125       0.99999976    6.4664567e-11
      0.24310637       0.99999975    7.0183481e-11
      0.24796850       0.99999974    7.6297081e-11
      0.24796850       0.99999974    7.6297081e-11
      0.25302908       0.99999972    8.3083853e-11
      0.25830052       0.99999971    9.0633277e-11
      0.25830052       0.99999971    9.0633277e-11
      0.26379628       0.99999970    9.9050035e-11
      0.26379628       0.99999970    9.9050035e-11
      0.26953098       0.99999969    1.0845546e-10
      0.26953098       0.99999969    1.0845546e-10
      0.27861629       0.99999967    1.2471454e-10
      0.27861629       0.99999967    1.2471454e-10
      0.28306906       0.99999966    1.3331232e-10
      0.28833547       0.99999964    1.4405612e-10
      0.28833547       0.99999964    1.4405612e-10
      0.29310697       0.99999963    1.5433459e-10
      0.29590513       0.99999962    1.6061945e-10
      0.30166484       0.99999961    1.7416141e-10
      0.30388297       0.99999960    1.7959958e-10
      0.30689171       0.99999960    1.8718953e-10
      0.30996062       0.99999959    1.9517250e-10
      0.31388418       0.99999958    2.0573164e-10
      0.31790833       0.99999957    2.1700753e-10
      0.32203701       0.99999955    2.2906747e-10
      0.32627434       0.99999954    2.4195047e-10
      0.33062467       0.99999953    2.5573102e-10
      0.33509257       0.99999952    2.7049656e-10
      0.33968288       0.99999950    2.8633164e-10
      0.33968288       0.99999950    2.8633164e-10
      0.34729482       0.99999948    3.1414356e-10
      0.35123017       0.99999947    3.2929408e-10
      0.35525573       0.99999946    3.4537141e-10
      0.35937464       0.99999944    3.6239308e-10
      0.36359018       0.99999943    3.8048277e-10
      0.37121033       0.99999941    4.1491107e-10
      0.37570985       0.99999939    4.3630703e-10
      0.38031979       0.99999938    4.5906406e-10
      0.38385217       0.99999937    4.7708625e-10
      0.38866536       0.99999935    5.0251890e-10
      0.39360079       0.99999933    5.2965112e-10
      0.39738542       0.99999932    5.5120240e-10
      0.39738542       0.99999932    5.5120240e-10
      0.40784293       0.99999928    6.1422168e-10
      0.40784293       0.99999928    6.1422168e-10
      0.41328083       0.99999927    6.3920550e-10
      0.41996528       0.99999924    6.8318003e-10
      0.42675785       0.99999922    7.3015632e-10
      0.43365996       0.99999919    7.8034281e-10
      0.43365996       0.99999919    7.8034281e-10
      0.44780188       0.99999914    8.9122323e-10
      0.44780188       0.99999914    8.9122323e-10
      0.46240522       0.99999908    1.0177434e-09
      0.46240522       0.99999908    1.0177434e-09
      0.46988471       0.99999905    1.0875416e-09
      0.47748323       0.99999902    1.1620873e-09
      0.48520618       0.99999899    1.2417181e-09
      0.49305362       0.99999895    1.3267675e-09
      0.49305362       0.99999895    1.3267675e-09
      0.50913375       0.99999888    1.5146403e-09
      0.50913375       0.99999888    1.5146403e-09
      0.51736847       0.99999885    1.6182609e-09
      0.52573570       0.99999881    1.7289253e-09
      0.52573570       0.99999881    1.7289253e-09
      0.53423986       0.99999877    1.8471250e-09
      0.54288101       0.99999873    1.9733555e-09
      0.55166142       0.99999869    2.1081556e-09
      0.56058349       0.99999865    2.2521068e-09
      0.56058349       0.99999865    2.2521068e-09
      0.57886523       0.99999856    2.5700279e-09
      0.57886523       0.99999856    2.5700279e-09
      0.58822755       0.99999851    2.7453430e-09
      0.59774203       0.99999846    2.9325640e-09
      0.60740863       0.99999841    3.1324639e-09
      0.61723320       0.99999836    3.3459408e-09
      0.61723320       0.99999836    3.3459408e-09
      0.63736268       0.99999825    3.8180019e-09
      0.63736268       0.99999825    3.8180019e-09
      0.64767070       0.99999819    4.0775110e-09
      0.65814639       0.99999813    4.3543815e-09
      0.66878971       0.99999807    4.6497440e-09
      0.67960781       0.99999801    4.9648726e-09
      0.67960781       0.99999801    4.9648726e-09
      0.70176851       0.99999788    5.6595855e-09
      0.70176851       0.99999788    5.6595855e-09
      0.71312284       0.99999781    6.0421379e-09
      0.72465574       0.99999774    6.4500902e-09
      0.73637533       0.99999766    6.8852214e-09
      0.74828597       0.99999759    7.3493360e-09
      0.74828597       0.99999759    7.3493360e-09
      0.77268974       0.99999742    8.3722494e-09
      0.77268974       0.99999742    8.3722494e-09
      0.78518752       0.99999734    8.9352131e-09
      0.79788566       0.99999725    9.5355355e-09
      0.81078912       0.99999716    1.0175667e-08
      0.82390321       0.99999707    1.0858318e-08
      0.83722795       0.99999697    1.1586189e-08
      0.85077472       0.99999688    1.2362464e-08
      0.86453191       0.99999677    1.3189906e-08
      0.87851717       0.99999667    1.4072265e-08
      0.89272445       0.99999656    1.5012870e-08
      0.90716643       0.99999645    1.6015822e-08
      0.92183655       0.99999633    1.7084852e-08
      0.93674824       0.99999621    1.8224630e-08
      0.95189443       0.99999608    1.9439397e-08
      0.96729692       0.99999596    2.0734776e-08
      0.96729692       0.99999596    2.0734776e-08
      0.99884192       0.99999569    2.3586775e-08
      0.99884192       0.99999569    2.3586775e-08
       1.0149914       0.99999555    2.5154919e-08
       1.0314143       0.99999540    2.6826966e-08
       1.0480937       0.99999525    2.8608555e-08
       1.0650470       0.99999509    3.0507477e-08
       1.0650470       0.99999509    3.0507477e-08
       1.0997751       0.99999477    3.4687470e-08
       1.0997751       0.99999477    3.4687470e-08
       1.1356365       0.99999442    3.9434507e-08
       1.1356365       0.99999442    3.9434507e-08
       1.1726719       0.99999404    4.4825143e-08
       1.1726719       0.99999404    4.4825143e-08
       1.1916406       0.99999385    4.7787957e-08
       1.2109138       0.99999365    5.0944891e-08
       1.2305030       0.99999344    5.4309057e-08
       1.2504021       0.99999322    5.7892439e-08
       1.2706260       0.99999300    6.1708556e-08
       1.2911771       0.99999277    6.5777082e-08
       1.3120610       0.99999253    7.0108480e-08
       1.3332830       0.99999229    7.4724935e-08
       1.3548474       0.99999203    7.9641509e-08
       1.3767614       0.99999177    8.4880196e-08
       1.3990297       0.99999150    9.0459574e-08
       1.4216568       0.99999122    9.6400730e-08
       1.4216568       0.99999122    9.6400730e-08
       1.4680180       0.99999064    1.0947212e-07
       1.4680180       0.99999064    1.0947212e-07
       1.4917624       0.99999033    1.1664994e-07
       1.5158889       0.99999001    1.2429586e-07
       1.5404086       0.99998968    1.3243752e-07
       1.5653233       0.99998934    1.4110626e-07
       1.5653233       0.99998934    1.4110626e-07
       1.6163693       0.99998863    1.6017047e-07
       1.6163693       0.99998863    1.6017047e-07
       1.6425127       0.99998826    1.7063898e-07
       1.6690775       0.99998787    1.8178366e-07
       1.6960747       0.99998747    1.9365056e-07
       1.7235068       0.99998706    2.0628411e-07
       1.7235068       0.99998706    2.0628411e-07
       1.7797106       0.99998619    2.3405087e-07
       1.7797106       0.99998619    2.3405087e-07
       1.8377457       0.99998527    2.6551737e-07
       1.8377457       0.99998527    2.6551737e-07
       1.8976755       0.99998428    3.0117080e-07
       1.8976755       0.99998428    3.0117080e-07
       1.9595592       0.99998323    3.4155960e-07
       1.9595592       0.99998323    3.4155960e-07
       2.0234629       0.99998211    3.8731444e-07
       2.0234629       0.99998211    3.8731444e-07
       2.0894473       0.99998091    4.3911507e-07
       2.0894473       0.99998091    4.3911507e-07
       2.1575837       0.99997963    4.9775271e-07
       2.1575837       0.99997963    4.9775271e-07
       2.2279410       0.99997827    5.6412095e-07
       2.2279410       0.99997827    5.6412095e-07
       2.3005973       0.99997681    6.3926881e-07
       2.3005973       0.99997681    6.3926881e-07
       2.3756186       0.99997526    7.2427477e-07
       2.3756186       0.99997526    7.2427477e-07
       2.4530886       0.99997360    8.2045656e-07
       2.4530886       0.99997360    8.2045656e-07
       2.5330824       0.99997184    9.2923460e-07
       2.5330824       0.99997184    9.2923460e-07
       2.6156849       0.99996995    1.0522194e-06
       2.6156849       0.99996995    1.0522194e-06
       2.7009877       0.99996794    1.1912521e-06
       2.7009877       0.99996794    1.1912521e-06
       2.7890648       0.99996580    1.3484067e-06
       2.7890648       0.99996580    1.3484067e-06
       2.8800192       0.99996351    1.5259577e-06
       2.8800192       0.99996351    1.5259577e-06
       2.9739352       0.99996107    1.7264864e-06
       2.9739352       0.99996107    1.7264864e-06
       3.0709086       0.99995847    1.9529463e-06
       3.0709086       0.99995847    1.9529463e-06
       3.1710581       0.99995570    2.2086441e-06
       3.1710581       0.99995570    2.2086441e-06
       3.2744626       0.99995275    2.4971274e-06
       3.2744626       0.99995275    2.4971274e-06
       3.3812472       0.99994960    2.8226190e-06
       3.3812472       0.99994960    2.8226190e-06
       3.4915109       0.99994625    3.1896479e-06
       3.4915109       0.99994625    3.1896479e-06
       3.6053672       0.99994268    3.6034154e-06
       3.6053672       0.99994268    3.6034154e-06
       3.7229377       0.99993889    4.0696309e-06
       3.7229377       0.99993889    4.0696309e-06
       3.8443417       0.99993485    4.5948805e-06
       3.8443417       0.99993485    4.5948805e-06
       3.9697063       0.99993055    5.1861849e-06
       3.9697063       0.99993055    5.1861849e-06
       4.0991543       0.99992598    5.8517825e-06
       4.0991543       0.99992598    5.8517825e-06
       4.2328301       0.99992112    6.6004715e-06
       4.2328301       0.99992112    6.6004715e-06
       4.3708599       0.99991597    7.4423480e-06
       4.3708599       0.99991597    7.4423480e-06
       4.5133926       0.99991050    8.3883623e-06
       4.5133926       0.99991050    8.3883623e-06
       4.6605890       0.99990470    9.4510567e-06
       4.6605890       0.99990470    9.4510567e-06
       4.8125674       0.99989856    1.0643852e-05
       4.8125674       0.99989856    1.0643852e-05
       4.9695078       0.99989207    1.1982131e-05
       4.9695078       0.99989207    1.1982131e-05
       5.1315648       0.99988521    1.3482658e-05
       5.1315648       0.99988521    1.3482658e-05
       5.2989025       0.99987798    1.5163820e-05
       5.2989025       0.99987798    1.5163820e-05
       5.4716958       0.99987037    1.7045528e-05
       5.4716958       0.99987037    1.7045528e-05
       5.6501326       0.99986238    1.9150940e-05
       5.6501326       0.99986238    1.9150940e-05
       5.8343882       0.99985403    2.1504652e-05
       5.8343882       0.99985403    2.1504652e-05
       6.0246483       0.99984533    2.4133720e-05
       6.0246483       0.99984533    2.4133720e-05
       6.2211108       0.99983633    2.7028363e-05
       6.2211108       0.99983633    2.7028363e-05
       6.4239878       0.99982703    3.0264129e-05
       6.4239878       0.99982703    3.0264129e-05
       6.6334728       0.99981755    3.3888082e-05
       6.6334728       0.99981755    3.3888082e-05
       6.8497693       0.99980809    3.7946115e-05
       6.8497693       0.99980809    3.7946115e-05
       7.0731335       0.99979898    4.2478286e-05
       7.0731335       0.99979898    4.2478286e-05
       7.3038032       0.99979084    4.7447764e-05
       7.3038032       0.99979084    4.7447764e-05
       7.5419881       0.99978500    5.2939543e-05
       7.5419881       0.99978500    5.2939543e-05
       7.7879065       0.99978711    5.9067379e-05
       7.7879065       0.99978711    5.9067379e-05
       7.9492370       0.99987503    6.3339112e-05
       8.0418913       0.99978567    1.2093160e-05
       8.0418913       0.99978567    1.2093160e-05
       8.3041479       0.99974965    1.3694305e-05
       8.3041479       0.99974965    1.3694305e-05
       8.5749435       0.99972416    1.5463660e-05
       8.5749435       0.99972416    1.5463660e-05
       8.8545632       0.99970012    1.7450592e-05
       8.8545632       0.99970012    1.7450592e-05
       9.1433138       0.99967590    1.9693835e-05
       9.1433138       0.99967590    1.9693835e-05
       9.4414555       0.99965087    2.2224491e-05
       9.4414555       0.99965087    2.2224491e-05
       9.7493355       0.99962469    2.5080488e-05
       9.7493355       0.99962469    2.5080488e-05
       10.067334       0.99959711    2.8290835e-05
       10.067334       0.99959711    2.8290835e-05
       10.395607       0.99956796    3.1899544e-05
       10.395607       0.99956796    3.1899544e-05
       10.734567       0.99953706    3.5968516e-05
       10.734567       0.99953706    3.5968516e-05
       11.084670       0.99950424    4.0557745e-05
       11.084670       0.99950424    4.0557745e-05
       11.446109       0.99946939    4.5731584e-05
       11.446109       0.99946939    4.5731584e-05
       11.819393       0.99943235    5.1564946e-05
       11.819393       0.99943235    5.1564946e-05
       12.204856       0.99939296    5.8029194e-05
       12.204856       0.99939296    5.8029194e-05
       12.602805       0.99935098    6.5354488e-05
       12.602805       0.99935098    6.5354488e-05
       13.013782       0.99930633    7.3618418e-05
       13.013782       0.99930633    7.3618418e-05
       13.438163       0.99925887    8.2907964e-05
       13.438163       0.99925887    8.2907964e-05
       13.876385       0.99920837    9.3286278e-05
       13.876385       0.99920837    9.3286278e-05
       14.328900       0.99915462    0.00010496672
       14.328900       0.99915462    0.00010496672
       14.796157       0.99909744    0.00011814955
       14.796157       0.99909744    0.00011814955
       15.278668       0.99903675    0.00013304252
       15.278668       0.99903675    0.00013304252
       15.776908       0.99897244    0.00014981030
       15.776908       0.99897244    0.00014981030
       16.291381       0.99890442    0.00016844641
       16.291381       0.99890442    0.00016844641
       16.554896       0.99886885    0.00017848820
       16.822646       0.99883218    0.00018912678
       16.822646       0.99883218    0.00018912678
       17.371237       0.99875564    0.00021234592
       17.371237       0.99875564    0.00021234592
       17.937718       0.99867463    0.00023797535
       17.937718       0.99867463    0.00023797535
       18.522667       0.99858820    0.00026686370
       18.522667       0.99858820    0.00026686370
       19.126701       0.99849729    0.00030024858
       19.126701       0.99849729    0.00030024858
       19.750420       0.99840227    0.00033741413
       19.750420       0.99840227    0.00033741413
       20.394494       0.99830247    0.00037871692
       20.394494       0.99830247    0.00037871692
       21.059540       0.99819809    0.00042506304
       21.059540       0.99819809    0.00042506304
       21.746320       0.99808993    0.00047703290
       21.746320       0.99808993    0.00047703290
       22.455464       0.99797862    0.00053333450
       22.455464       0.99797862    0.00053333450
       23.187715       0.99786236    0.00059498921
       23.187715       0.99786236    0.00059498921
       23.943873       0.99774235    0.00066387932
       23.943873       0.99774235    0.00066387932
       24.724703       0.99762050    0.00074078684
       24.724703       0.99762050    0.00074078684
       25.530967       0.99749867    0.00082594843
       25.530967       0.99749867    0.00082594843
       26.363529       0.99737990    0.00092069636
       26.363529       0.99737990    0.00092069636
       27.223259       0.99727056     0.0010263208
       27.223259       0.99727056     0.0010263208
       28.111028       0.99718380     0.0011440822
       28.111028       0.99718380     0.0011440822
       29.027695       0.99715383     0.0012729719
       29.027695       0.99715383     0.0012729719
       29.974313       0.99737274     0.0014149614
       29.974313       0.99737274     0.0014149614
       30.254819       0.99825245    0.00066539914
       30.951724       0.99700228    0.00071747963
       30.951724       0.99700228    0.00071747963
       31.961129       0.99659145    0.00079798222
       31.961129       0.99659145    0.00079798222
       33.003325       0.99625691    0.00088754765
       33.003325       0.99625691    0.00088754765
       34.079583       0.99593429    0.00098721302
       34.079583       0.99593429    0.00098721302
       35.190907       0.99560545     0.0011033798
       35.190907       0.99560545     0.0011033798
       36.338557       0.99527108     0.0012368324
       36.338557       0.99527108     0.0012368324
       37.523455       0.99492587     0.0013864522
       37.523455       0.99492587     0.0013864522
       38.747137       0.99456726     0.0015542220
       38.747137       0.99456726     0.0015542220
       40.010665       0.99419492     0.0017419351
       40.010665       0.99419492     0.0017419351
       41.315413       0.99380680     0.0019505711
       41.315413       0.99380680     0.0019505711
       42.662715       0.99340306     0.0021841960
       42.662715       0.99340306     0.0021841960
       44.053998       0.99298568     0.0024458122
       44.053998       0.99298568     0.0024458122
       45.490627       0.99256034     0.0027387630
       45.490627       0.99256034     0.0027387630
       46.974051       0.99214544     0.0030450917
       46.974051       0.99214544     0.0030450917
       48.505812       0.99169566     0.0033506828
       48.505812       0.99169566     0.0033506828
       50.087563       0.99121268     0.0036870533
       50.087563       0.99121268     0.0036870533
       51.721092       0.99070135     0.0040573248
       51.721092       0.99070135     0.0040573248
       53.407647       0.99016080     0.0044648549
       53.407647       0.99016080     0.0044648549
       55.149211       0.98957908     0.0049134542
       55.149211       0.98957908     0.0049134542
       56.947698       0.98896705     0.0054531358
       56.947698       0.98896705     0.0054531358
       58.804899       0.98836105     0.0060600646
       58.804899       0.98836105     0.0060600646
       60.722419       0.98775642     0.0067345156
       60.722419       0.98775642     0.0067345156
       62.702545       0.98716228     0.0074806518
       62.702545       0.98716228     0.0074806518
       64.747453       0.98658584     0.0083056731
       64.747453       0.98658584     0.0083056731
       66.858775       0.98605433     0.0092216538
       66.858775       0.98605433     0.0092216538
       69.038928       0.98566459      0.010238693
       69.038928       0.98566459      0.010238693
       71.290142       0.98537495      0.011064915
       71.290142       0.98537495      0.011064915
       73.615234       0.98496693      0.011900602
       73.615234       0.98496693      0.011900602
       76.015922       0.98453399      0.012801022
       76.015922       0.98453399      0.012801022
       78.494394       0.98410607      0.013764481
       78.494394       0.98410607      0.013764481
       81.054529       0.98370325      0.014799056
       81.054529       0.98370325      0.014799056
       83.697362       0.98337945      0.015850382
       83.697362       0.98337945      0.015850382
       86.426674       0.98302950      0.016916184
       86.426674       0.98302950      0.016916184
       89.245456       0.98269878      0.018056530
       89.245456       0.98269878      0.018056530
       92.155562       0.98242443      0.019276569
       92.155562       0.98242443      0.019276569
       95.160950       0.98225676      0.020582514
       95.160950       0.98225676      0.020582514
       98.263721       0.98232955      0.021975907
       98.263721       0.98232955      0.021975907
       101.46841       0.98280712      0.022933914
       101.46841       0.98280712      0.022933914
       104.77749       0.98288000      0.023596179
       104.77749       0.98288000      0.023596179
       108.19436       0.98279176      0.024295049
       108.19436       0.98279176      0.024295049
       111.72269       0.98261819      0.025034188
       111.72269       0.98261819      0.025034188
       115.36531       0.98239810      0.025816770
       115.36531       0.98239810      0.025816770
       119.12742       0.98218805      0.026647406
       119.12742       0.98218805      0.026647406
       123.01245       0.98197579      0.027406415
       123.01245       0.98197579      0.027406415
       127.02380       0.98169589      0.028187953
       127.02380       0.98169589      0.028187953
       131.16612       0.98140820      0.029021566
       131.16612       0.98140820      0.029021566
       135.44344       0.98117934      0.029915962
       135.44344       0.98117934      0.029915962
       139.86020       0.98112990      0.030873661
       139.86020       0.98112990      0.030873661
       144.42114       0.98165501      0.031564077
       144.42114       0.98165501      0.031564077
       149.13066       0.98183487      0.031431742
       149.13066       0.98183487      0.031431742
       153.99379       0.98175295      0.031412542
       153.99379       0.98175295      0.031412542
       159.01553       0.98180281      0.031365025
       159.01553       0.98180281      0.031365025
       164.20102       0.98266598      0.031453940
       164.20102       0.98266598      0.031453940
       169.55575       0.98993580      0.031693956
       169.55575       0.98993580      0.031693956
       170.77720       0.99698691      0.014501806
       175.08487       0.97805481      0.015500966
       175.08487       0.97805481      0.015500966
       180.79436       0.97037125      0.016879631
       180.79436       0.97037125      0.016879631
       186.69009       0.96458652      0.018367852
       186.69009       0.96458652      0.018367852
       192.77807       0.95937114      0.019997530
       192.77807       0.95937114      0.019997530
       199.06468       0.95430893      0.021850605
       199.06468       0.95430893      0.021850605
       205.55611       0.94939956      0.023920387
       205.55611       0.94939956      0.023920387
       212.25927       0.94446686      0.026163998
       212.25927       0.94446686      0.026163998
       219.18124       0.93945950      0.028596809
       219.18124       0.93945950      0.028596809
       226.32876       0.93434127      0.031255385
       226.32876       0.93434127      0.031255385
       233.70942       0.92916030      0.033445906
       233.70942       0.92916030      0.033445906
       237.48951       0.92599532      0.035101835
       241.33046       0.92299751      0.036839696
       241.33046       0.92299751      0.036839696
       249.20055       0.91702048      0.040577895
       249.20055       0.91702048      0.040577895
       257.32697       0.91097077      0.044695267
       257.32697       0.91097077      0.044695267
       265.71850       0.90488438      0.049124855
       265.71850       0.90488438      0.049124855
       274.38339       0.89863475      0.053776141
       274.38339       0.89863475      0.053776141
       283.33105       0.89203866      0.058789925
       283.33105       0.89203866      0.058789925
       292.57025       0.88518449      0.064277699
       292.57025       0.88518449      0.064277699
       302.11103       0.87810964      0.070284900
       302.11103       0.87810964      0.070284900
       311.96343       0.87084110      0.076818486
       311.96343       0.87084110      0.076818486
       322.13575       0.86345730      0.083965687
       322.13575       0.86345730      0.083965687
       331.50869       0.85756621      0.090925316
       332.64091       0.85672656      0.090832545
       338.02148       0.85182336      0.094397166
       343.48854       0.84739109      0.098696423
       349.04395       0.84302417       0.10319493
       354.68965       0.83865375       0.10790173
       360.42667       0.83426038       0.11282686
       366.25600       0.82983575       0.11797992
       372.17978       0.82537213       0.12337196
       378.20024       0.82083868       0.12901456
       384.31739       0.81623465       0.13503930
       390.53233       0.81169363       0.14147358
       396.84992       0.80727638       0.14822355
       403.26770       0.80295142       0.15530138
       409.79078       0.79874006       0.16272594
       416.41925       0.79467528       0.17051315
       423.15444       0.79080103       0.17868016
