;  Optical constants for Be.
;  Density = 1.8480000 g/cm3
;   
;  Computed from the atomic scattering factors from 
;  CXRO <http://www-cxro.lbl.gov> and
;  LLNL <http://www-phys.llnl.gov/V_Div/scattering/asf.html>.
;   
;  Lambda (A) n k
      0.12398425       0.99999997    3.3960961e-14
      0.13776028       0.99999996    5.3726449e-14
      0.15498031       0.99999995    8.9615844e-14
      0.16078881       0.99999994    1.0524904e-13
      0.16540055       0.99999994    1.1909397e-13
      0.17712036       0.99999993    1.6062883e-13
      0.18552185       0.99999992    1.9672938e-13
      0.20664042       0.99999991    3.1527461e-13
      0.20823690       0.99999990    3.2607432e-13
      0.21551234       0.99999990    3.7896284e-13
      0.24796850       0.99999986    7.0024786e-13
      0.25830052       0.99999985    8.3722578e-13
      0.26953098       0.99999984    1.0086406e-12
      0.28833547       0.99999982    1.3549523e-12
      0.30996062       0.99999979    1.8594519e-12
      0.32627434       0.99999976    2.3270731e-12
      0.34411393       0.99999974    2.9371144e-12
      0.35937464       0.99999971    3.5507483e-12
      0.37570985       0.99999969    4.3121044e-12
      0.39360079       0.99999966    5.2842571e-12
      0.41328083       0.99999962    6.9789243e-12
      0.41328221       0.99999962    6.9790273e-12
      0.41996670       0.99999961    7.4811017e-12
      0.42675932       0.99999960    8.0192906e-12
      0.43366148       0.99999958    8.5961717e-12
      0.44067620       0.99999957    9.2146074e-12
      0.44780350       0.99999956    9.8775123e-12
      0.45504652       0.99999954    1.0588103e-11
      0.46240695       0.99999953    1.1349833e-11
      0.46988649       0.99999951    1.2166347e-11
      0.47748507       0.99999950    1.3041476e-11
      0.48520808       0.99999948    1.3979756e-11
      0.49305558       0.99999946    1.4985395e-11
      0.50103149       0.99999944    1.6063534e-11
      0.50913584       0.99999943    1.7219130e-11
      0.51737063       0.99999941    1.8457871e-11
      0.52573793       0.99999939    1.9785670e-11
      0.53424216       0.99999937    2.1209171e-11
      0.54288338       0.99999935    2.2735111e-11
      0.55166388       0.99999933    2.4370502e-11
      0.56058602       0.99999930    2.6123666e-11
      0.56965228       0.99999928    2.8002970e-11
      0.57886523       0.99999926    3.0017327e-11
      0.58823034       0.99999923    3.2177115e-11
      0.59774203       0.99999921    3.4491791e-11
      0.60741161       0.99999918    3.6973129e-11
      0.61723627       0.99999916    3.9633049e-11
      0.62721894       0.99999913    4.2484088e-11
      0.63736268       0.99999910    4.5540275e-11
      0.64767408       0.99999907    4.8817111e-11
      0.65814639       0.99999904    5.2328363e-11
      0.66879332       0.99999901    5.6093096e-11
      0.67961153       0.99999898    6.0128650e-11
      0.69060079       0.99999894    6.4453655e-11
      0.70177248       0.99999891    6.9090954e-11
      0.71312284       0.99999887    7.4061444e-11
      0.72465574       0.99999884    7.9389127e-11
      0.73637970       0.99999880    8.5100953e-11
      0.74828597       0.99999876    9.1221927e-11
      0.76039233       0.99999872    9.7785399e-11
      0.77268974       0.99999868    1.0478119e-10
      0.78518752       0.99999863    1.1227816e-10
      0.79788566       0.99999859    1.2031041e-10
      0.81079442       0.99999854    1.2891912e-10
      0.82390868       0.99999850    1.3814301e-10
      0.83723360       0.99999845    1.4802573e-10
      0.85077472       0.99999840    1.5861675e-10
      0.86453191       0.99999834    1.6996343e-10
      0.87851717       0.99999829    1.8212431e-10
      0.89272445       0.99999823    1.9515354e-10
      0.90716643       0.99999818    2.0911722e-10
      0.92183655       0.99999812    2.2407703e-10
      0.93674824       0.99999806    2.4011054e-10
      0.95190174       0.99999799    2.5729004e-10
      0.96729692       0.99999793    2.7569754e-10
      0.98294103       0.99999786    2.9542138e-10
      0.99884192       0.99999779    3.1655898e-10
       1.0149914       0.99999772    3.3905377e-10
       1.0314143       0.99999764    3.6315447e-10
       1.0480937       0.99999757    3.8896126e-10
       1.0650470       0.99999749    4.1660567e-10
       1.0822742       0.99999740    4.4621461e-10
       1.0997751       0.99999732    4.7792291e-10
       1.1175692       0.99999723    5.1189633e-10
       1.1356365       0.99999714    5.4826831e-10
       1.1540074       0.99999705    5.8723590e-10
       1.1726719       0.99999695    6.2896995e-10
       1.1916406       0.99999685    6.7367305e-10
       1.2109138       0.99999675    7.2154973e-10
       1.2305030       0.99999664    7.7283653e-10
       1.2504034       0.99999653    8.2775956e-10
       1.2706273       0.99999642    8.8658740e-10
       1.2911785       0.99999630    9.4959529e-10
       1.3120623       0.99999618    1.0170819e-09
       1.3332844       0.99999606    1.0893684e-09
       1.3548488       0.99999593    1.1667908e-09
       1.3767630       0.99999580    1.2497117e-09
       1.3990297       0.99999566    1.3385307e-09
       1.4216584       0.99999552    1.4336637e-09
       1.4446523       0.99999537    1.5355524e-09
       1.4680197       0.99999522    1.6446895e-09
       1.4917624       0.99999507    1.7615727e-09
       1.5158908       0.99999491    1.8860011e-09
       1.5404086       0.99999474    2.0192315e-09
       1.5653233       0.99999457    2.1618602e-09
       1.5906429       0.99999439    2.3145774e-09
       1.6163693       0.99999421    2.4780873e-09
       1.6425127       0.99999402    2.6531344e-09
       1.6690797       0.99999382    2.8405442e-09
       1.6960747       0.99999362    3.0411885e-09
       1.7235091       0.99999341    3.2560206e-09
       1.7513854       0.99999320    3.4860392e-09
       1.7797106       0.99999297    3.7322718e-09
       1.8084974       0.99999275    3.9959245e-09
       1.8377484       0.99999251    4.2782027e-09
       1.8674717       0.99999226    4.5803923e-09
       1.8976755       0.99999201    4.9039413e-09
       1.9283713       0.99999175    5.2503708e-09
       1.9595592       0.99999148    5.6212354e-09
       1.9912542       0.99999120    6.0161656e-09
       2.0234629       0.99999091    6.4388401e-09
       2.0561883       0.99999062    6.8911549e-09
       2.0894473       0.99999031    7.3753137e-09
       2.1232398       0.99998999    7.8934500e-09
       2.1575837       0.99998967    8.4480130e-09
       2.1924790       0.99998933    9.0414982e-09
       2.2279410       0.99998898    9.6767096e-09
       2.2639777       0.99998862    1.0356546e-08
       2.3005930       0.99998825    1.1084136e-08
       2.3378037       0.99998787    1.1862814e-08
       2.3756186       0.99998747    1.2696267e-08
       2.4140424       0.99998706    1.3581984e-08
       2.4530886       0.99998664    1.4529541e-08
       2.4927620       0.99998620    1.5543118e-08
       2.5330824       0.99998575    1.6627563e-08
       2.5740497       0.99998528    1.7787526e-08
       2.6156849       0.99998480    1.9028457e-08
       2.6579939       0.99998430    2.0355980e-08
       2.7009818       0.99998379    2.1776064e-08
       2.7446721       0.99998326    2.3295394e-08
       2.7890648       0.99998271    2.4920565e-08
       2.8341719       0.99998215    2.6659004e-08
       2.8800125       0.99998156    2.8518845e-08
       2.9265934       0.99998096    3.0508416e-08
       2.9739281       0.99998034    3.2636802e-08
       3.0220307       0.99997970    3.4913790e-08
       3.0709086       0.99997903    3.7327592e-08
       3.1205765       0.99997834    3.9908216e-08
       3.1710500       0.99997764    4.2667347e-08
       3.2223454       0.99997690    4.5617391e-08
       3.2744626       0.99997615    4.8771118e-08
       3.3274268       0.99997537    5.2143214e-08
       3.3812380       0.99997456    5.5747947e-08
       3.4359325       0.99997373    5.9602390e-08
       3.4915011       0.99997287    6.3722885e-08
       3.5479724       0.99997198    6.8128415e-08
       3.6053567       0.99997106    7.2838715e-08
       3.6636748       0.99997011    7.7875060e-08
       3.7229265       0.99996913    8.3258704e-08
       3.7831449       0.99996812    8.9014853e-08
       3.8443417       0.99996708    9.5169412e-08
       3.9065168       0.99996600    1.0174844e-07
       3.9697063       0.99996488    1.0878409e-07
       4.0339103       0.99996373    1.1630424e-07
       4.0991543       0.99996254    1.2434535e-07
       4.1654516       0.99996132    1.3281783e-07
       4.2328301       0.99996005    1.4186800e-07
       4.3012899       0.99995874    1.5153360e-07
       4.3708599       0.99995738    1.6185878e-07
       4.4415557       0.99995598    1.7288742e-07
       4.5133926       0.99995454    1.8466723e-07
       4.5863867       0.99995305    1.9725002e-07
       4.6605714       0.99995151    2.1069011e-07
       4.7359470       0.99994992    2.2504580e-07
       4.8125488       0.99994827    2.4037988e-07
       4.8903959       0.99994657    2.5675881e-07
       4.9694879       0.99994482    2.7425243e-07
       5.0498636       0.99994300    2.9293920e-07
       5.1315435       0.99994113    3.1289917e-07
       5.2145492       0.99993920    3.3422043e-07
       5.2988798       0.99993720    3.5699212e-07
       5.3846029       0.99993513    3.8131816e-07
       5.4716717       0.99993300    4.0729780e-07
       5.5601809       0.99993080    4.3505052e-07
       5.6501069       0.99992852    4.6469221e-07
       5.7415001       0.99992617    4.9635610e-07
       5.8343608       0.99992374    5.3017716e-07
       5.9287432       0.99992123    5.6630475e-07
       6.0246190       0.99991864    6.0488758e-07
       6.1220744       0.99991596    6.4610441e-07
       6.2210796       0.99991319    6.8943546e-07
       6.3216953       0.99991033    7.3567537e-07
       6.4239545       0.99990738    7.8501983e-07
       6.5278575       0.99990433    8.3767081e-07
       6.6334373       0.99990117    8.9385313e-07
       6.7407290       0.99989791    9.5380387e-07
       6.8497693       0.99989455    1.0177807e-06
       6.9605584       0.99989107    1.0860435e-06
       7.0731335       0.99988748    1.1588820e-06
       7.1875344       0.99988376    1.2366080e-06
       7.3038032       0.99987992    1.3195537e-06
       7.4218956       0.99987596    1.4080400e-06
       7.5419422       0.99987186    1.5024795e-06
       7.6639458       0.99986763    1.6032594e-06
       7.7879065       0.99986326    1.7107876e-06
       7.9138715       0.99985874    1.8255345e-06
       8.0418913       0.99985407    1.9479814e-06
       8.1719121       0.99984924    2.0786051e-06
       8.3040923       0.99984426    2.2157665e-06
       8.4384358       0.99983910    2.3619882e-06
       8.5748842       0.99983378    2.5178184e-06
       8.7136125       0.99982827    2.6839803e-06
       8.8545632       0.99982258    2.8610892e-06
       8.9977321       0.99981671    3.0498485e-06
       9.1433138       0.99981063    3.2511241e-06
       9.2911768       0.99980435    3.4654668e-06
       9.4414555       0.99979787    3.6939680e-06
       9.5941507       0.99979116    3.9375133e-06
       9.7493355       0.99978423    4.1971418e-06
       9.9070101       0.99977707    4.4738678e-06
       10.067252       0.99976966    4.7688524e-06
       10.230061       0.99976201    5.0832663e-06
       10.395520       0.99975410    5.4184271e-06
       10.563718       0.99974592    5.7757460e-06
       10.734567       0.99973747    6.1565663e-06
       10.908153       0.99972874    6.5624477e-06
       11.084571       0.99971971    6.9951469e-06
       11.263923       0.99971038    7.4564587e-06
       11.446109       0.99970073    7.9480931e-06
       11.631229       0.99969076    8.4720850e-06
       11.819280       0.99968046    9.0305980e-06
       12.010486       0.99966980    9.6261296e-06
       12.204736       0.99965879    1.0260800e-05
       12.402158       0.99964740    1.0937326e-05
       12.602753       0.99963564    1.1658551e-05
       12.806597       0.99962347    1.2427179e-05
       13.013727       0.99961090    1.3246553e-05
       13.224225       0.99959790    1.4120037e-05
       13.438119       0.99958447    1.5040684e-05
       13.655465       0.99957058    1.6021523e-05
       13.876323       0.99955622    1.7066108e-05
       14.100768       0.99954137    1.8179000e-05
       14.328834       0.99952602    1.9369606e-05
       14.560602       0.99951015    2.0638291e-05
       14.796104       0.99949374    2.1989934e-05
       15.035410       0.99947678    2.3430300e-05
       15.278592       0.99945925    2.4964894e-05
       15.525725       0.99944112    2.6599944e-05
       15.776828       0.99942238    2.8342140e-05
       16.032018       0.99940301    3.0198524e-05
       16.291317       0.99938299    3.2176338e-05
       16.554807       0.99936230    3.4283803e-05
       16.822578       0.99934092    3.6529366e-05
       17.094674       0.99931882    3.8921798e-05
       17.371164       0.99929600    4.1435900e-05
       17.652119       0.99927244    4.4112060e-05
       17.937640       0.99924806    4.6824194e-05
       18.227751       0.99922275    4.9702584e-05
       18.522584       0.99919643    5.2896899e-05
       18.822167       0.99916930    5.6444333e-05
       19.126613       0.99914139    6.0229984e-05
       19.435949       0.99911259    6.4269233e-05
       19.750326       0.99908285    6.8392996e-05
       20.069776       0.99905208    7.2781299e-05
       20.394394       0.99902026    7.7451034e-05
       20.724246       0.99898736    8.2420340e-05
       21.059433       0.99895336    8.7708492e-05
       21.400061       0.99891823    9.3335975e-05
       21.746205       0.99888193    9.9324735e-05
       22.097901       0.99884445    0.00010569740
       22.455342       0.99880575    0.00011235410
       22.818529       0.99876570    0.00011942965
       23.187585       0.99872429    0.00012695103
       23.562639       0.99868148    0.00013494633
       23.943735       0.99863725    0.00014344463
       24.331009       0.99859153    0.00015247843
       24.724555       0.99854429    0.00016208169
       25.124473       0.99849548    0.00017228938
       25.530810       0.99844506    0.00018313954
       25.943772       0.99839297    0.00019467333
       26.363361       0.99833917    0.00020693274
       26.789797       0.99828360    0.00021996569
       27.223080       0.99822623    0.00023381818
       27.663385       0.99816699    0.00024854301
       28.110837       0.99810584    0.00026419660
       28.565496       0.99804274    0.00028083445
       29.027559       0.99797764    0.00029852150
       29.497024       0.99791049    0.00031732166
       29.974096       0.99784131    0.00033730491
       30.458919       0.99777008    0.00035854768
       30.951570       0.99769674    0.00038112877
       31.452198       0.99762135    0.00040458356
       31.960882       0.99754373    0.00042948012
       32.477865       0.99746365    0.00045508155
       33.003149       0.99738086    0.00048220606
       33.536902       0.99729508    0.00051094744
       34.079396       0.99720658    0.00054140441
       34.630537       0.99711526    0.00057367288
       35.190707       0.99702104    0.00060786900
       35.759908       0.99692386    0.00064410145
       36.338238       0.99682366    0.00068249151
       36.926011       0.99672033    0.00072317272
       37.523228       0.99661383    0.00076627711
       38.130228       0.99650404    0.00081195144
       38.746894       0.99639089    0.00086034934
       39.373579       0.99627403    0.00091162602
       40.010407       0.99615390    0.00096672415
       40.657639       0.99603048     0.0010251472
       41.315138       0.99590375     0.0010870983
       41.983445       0.99577362     0.0011527997
       42.662422       0.99564010     0.0012224688
       43.352501       0.99550313     0.0012963475
       44.053685       0.99536278     0.0013746869
       44.766283       0.99521910     0.0014577716
       45.490294       0.99507224     0.0015458713
       46.226040       0.99492238     0.0016392926
       46.973695       0.99476990     0.0017383608
       47.733433       0.99461552     0.0018434206
       48.505622       0.99446085     0.0019548257
       49.290073       0.99425999     0.0020729572
       49.593700       0.99424364     0.0021116222
       49.693086       0.99424024     0.0021439146
       49.794871       0.99423841     0.0021532006
       49.893058       0.99422623     0.0021377843
       50.094646       0.99416901     0.0021554833
       50.297870       0.99412303     0.0021804323
       50.400102       0.99409910     0.0021902755
       50.605816       0.99404848     0.0022061355
       50.709305       0.99401602     0.0022227288
       50.813217       0.99398408     0.0022324339
       50.917556       0.99395425     0.0022675678
       51.127526       0.99392148     0.0022953404
       51.233161       0.99389888     0.0022945734
       51.339234       0.99385861     0.0023078647
       51.445747       0.99382829     0.0023426735
       51.552703       0.99380699     0.0023583112
       51.660104       0.99378393     0.0023818324
       51.767954       0.99376577     0.0023995194
       51.985010       0.99371002     0.0024247115
       52.094223       0.99368407     0.0024473529
       52.203895       0.99365620     0.0024615618
       52.424630       0.99360607     0.0025115209
       52.647240       0.99355221     0.0025316983
       52.759255       0.99351883     0.0025459356
       52.871748       0.99347537     0.0025796673
       53.441487       0.99333858     0.0026998826
       53.556911       0.99331198     0.0027394966
       53.672835       0.99328837     0.0027734465
       53.789262       0.99327594     0.0027919485
       54.023638       0.99322233     0.0028408167
       54.141594       0.99319761     0.0028688346
       54.260066       0.99316182     0.0028865226
       54.379057       0.99313587     0.0029398715
       54.498571       0.99312771     0.0029759817
       54.741600       0.99309530     0.0030164553
       54.860288       0.99307194     0.0030431657
       55.226837       0.99303574     0.0031119023
       55.350112       0.99300824     0.0031173787
       55.473937       0.99297621     0.0031377326
       55.598318       0.99294640     0.0031692957
       55.723258       0.99292455     0.0031919121
       55.848761       0.99290038     0.0032208492
       55.974831       0.99287883     0.0032425375
       56.101471       0.99286027     0.0032730513
       56.228685       0.99283823     0.0032793156
       56.356477       0.99280397     0.0033025046
       56.613813       0.99274856     0.0033572969
       56.873509       0.99269325     0.0034063127
       57.135599       0.99263949     0.0034676427
       57.533295       0.99257390     0.0035490405
       57.667093       0.99254535     0.0035857127
       57.801515       0.99252118     0.0035968616
       58.072248       0.99245058     0.0036527453
       58.208568       0.99242262     0.0036960690
       58.345529       0.99240771     0.0037270741
       58.483137       0.99237820     0.0037460958
       58.899881       0.99230358     0.0038451075
       59.464868       0.99220809     0.0039565691
       59.604947       0.99217737     0.0039940393
       59.751446       0.99214789     0.0040168600
       59.895773       0.99211770     0.0040606439
       60.627995       0.99201895     0.0042104012
       61.075985       0.99195541     0.0042788647
       61.530645       0.99186159     0.0043478176
       61.992125       0.99176074     0.0044304742
       62.300513       0.99170298     0.0045006916
       62.776835       0.99159210     0.0045663055
       63.096310       0.99151665     0.0046444693
       63.419054       0.99145545     0.0047127057
       63.581667       0.99141570     0.0047318900
       63.745116       0.99135940     0.0047624376
       63.909407       0.99131627     0.0048294931
       64.071237       0.99129597     0.0048698947
       64.575130       0.99120893     0.0049630744
       64.913220       0.99114259     0.0050413832
       65.083596       0.99110628     0.0050663807
       65.254868       0.99107382     0.0051029372
       65.600132       0.99099922     0.0051441160
       65.774138       0.99095227     0.0051754666
       65.949069       0.99089842     0.0051920259
       66.124933       0.99082979     0.0052484697
       66.134104       0.99082725     0.0052503858
       67.203778       0.99055686     0.0054767973
       67.566349       0.99045805     0.0055608771
       68.123214       0.99028809     0.0056809285
       68.307118       0.99022161     0.0057583555
       68.499586       0.99016577     0.0057813159
       68.880139       0.99001803     0.0058583157
       69.458964       0.98973150     0.0060760736
       69.654073       0.98967188     0.0061336840
       69.846347       0.98959355     0.0062693577
       70.246034       0.98951086     0.0064639746
       70.445597       0.98946580     0.0065425512
       70.642271       0.98941902     0.0066379940
       71.051146       0.98933982     0.0068039809
       71.259411       0.98930513     0.0068438146
       71.671339       0.98916784     0.0070360927
       72.294023       0.98903698     0.0072901607
       72.505409       0.98897440     0.0073534950
       72.718035       0.98890700     0.0074438014
       72.931912       0.98882899     0.0075161055
       73.147050       0.98873763     0.0076172220
       73.800149       0.98848027     0.0080070107
       74.020448       0.98839917     0.0081820701
       74.242066       0.98833653     0.0083405282
       74.689307       0.98827747     0.0087026855
       74.914955       0.98824401     0.0088638101
       75.370365       0.98821647     0.0092426516
       76.063957       0.98833795     0.0098635539
       76.533488       0.98853617      0.010220888
       76.770433       0.98863240      0.010315604
       77.248754       0.98884259      0.010548472
       77.490156       0.98894875      0.010630862
       77.977516       0.98913015      0.010742681
       78.471044       0.98931053      0.010867569
       78.720159       0.98940784      0.010901129
       78.970860       0.98948687      0.010875602
       79.223163       0.98953007      0.010872707
       79.732637       0.98957659      0.010870883
       79.989839       0.98959671      0.010844440
       80.771498       0.98952881      0.010898353
       81.035458       0.98948138      0.010958646
       81.568586       0.98943272      0.010986742
       82.108775       0.98934814      0.011126247
       82.656167       0.98933438      0.011296580
       83.210906       0.98931263      0.011320123
       83.491077       0.98928906      0.011380231
       83.773142       0.98926087      0.011392433
       84.630887       0.98903118      0.011483464
       84.920719       0.98893983      0.011563850
       85.212543       0.98886196      0.011674383
       85.506379       0.98879173      0.011751634
       85.802249       0.98873270      0.011887036
       86.100174       0.98868679      0.011966033
       86.400174       0.98865986      0.012097310
       86.702273       0.98863645      0.012141885
       87.006491       0.98859715      0.012218018
       87.312852       0.98853650      0.012254483
       87.621378       0.98849412      0.012343025
       87.932092       0.98844046      0.012318627
       88.560179       0.98811261      0.012314047
       89.197302       0.98767577      0.012551254
       89.519314       0.98750799      0.012740155
       89.843659       0.98733551      0.012846051
       90.170364       0.98714009      0.013051980
       90.830952       0.98689401      0.013429676
       91.164890       0.98676479      0.013548763
       91.501292       0.98658292      0.013620286
       92.181599       0.98606152      0.013861168
       92.525560       0.98573820      0.013922421
       92.872097       0.98530820      0.014020982
       93.221241       0.98471314      0.014083291
       93.927462       0.98311435      0.014792174
       94.284601       0.98216914      0.015541611
       94.644466       0.98107262      0.016196577
       95.007088       0.98016336      0.017972818
       95.372500       0.97949647      0.019277463
       95.740734       0.97901618      0.021362268
       96.111822       0.97878348      0.023320460
       96.485798       0.97900984      0.025817454
       96.862695       0.97940550      0.028020579
       97.242549       0.98077491      0.031489321
       97.625394       0.98330093      0.033780981
       98.011265       0.98644057      0.035362870
       98.400198       0.98950934      0.035846167
       98.792231       0.99275244      0.035929370
       99.187400       0.99509786      0.034336024
       99.987298       0.99819094      0.032113460
       100.39211       0.99840657      0.030497132
       100.80020       0.99838369      0.030444735
       101.21163       0.99889068      0.031064579
       101.62643        1.0005443      0.031496734
       102.04465        1.0024112      0.031015655
       102.46632        1.0031798      0.028915351
       102.89149        1.0035631      0.029380279
       103.75251        1.0049690      0.028251573
       103.97002        1.0053861      0.028190037
       104.18845        1.0055283      0.028391740
       104.40779        1.0062360      0.028747795
       104.62806        1.0071027      0.029037681
       104.84926        1.0086145      0.029253244
       105.07140        1.0103358      0.028703393
       105.29448        1.0121927      0.027539641
       105.51851        1.0128971      0.024791416
       105.74350        1.0124950      0.023230287
       105.96944        1.0119374      0.022315400
       106.19636        1.0114970      0.021391892
       106.42425        1.0109428      0.021087235
       106.65312        1.0106871      0.020834620
       106.88297        1.0105924      0.020778897
       107.11382        1.0107223      0.020541872
       107.34567        1.0107289      0.020067016
       107.81239        1.0101751      0.019526477
       108.04728        1.0097913      0.019816837
       108.28319        1.0094508      0.020200904
       108.52013        1.0091719      0.021282335
       108.75811        1.0097768      0.023369569
       108.99714        1.0116612      0.025299381
       109.23722        1.0157601      0.027449704
       109.47837        1.0220733      0.026666746
       109.72058        1.0266118      0.020398055
       109.96386        1.0264515      0.013657356
       110.20822        1.0241650      0.010593082
       110.45367        1.0230832     0.0093357238
       110.70022        1.0232249     0.0070478451
       110.89826        1.0219005     0.0025759486
       111.09700        1.0184971     0.0015263515
       111.16673        1.0177039     0.0014337704
       111.29645        1.0164681     0.0013654971
       111.41647        1.0155163     0.0013214518
       111.54678        1.0146416     0.0013190466
       111.66734        1.0139406     0.0013026890
       111.79824        1.0132500     0.0012718321
       111.92945        1.0126210     0.0012699131
       112.04071        1.0121378     0.0012483336
       112.17249        1.0115917     0.0012268565
       112.43697        1.0106156     0.0012110309
       112.54925        1.0102389     0.0012012532
       112.68222        1.0098140     0.0011866840
       112.81551        1.0094104     0.0011844189
       112.94912        1.0090304     0.0011720018
       113.19661        1.0083666     0.0011605051
       113.33112        1.0080294     0.0011625322
       113.46596        1.0077076     0.0011499864
       113.59070        1.0074199     0.0011507016
       113.71572        1.0071431     0.0011442207
       113.98754        1.0065670     0.0011376748
       114.11344        1.0063189     0.0011408598
       114.23961        1.0060752     0.0011274056
       114.37661        1.0058107     0.0011282062
       114.50337        1.0055780     0.0011341858
       114.76835        1.0051230     0.0011353714
       115.04524        1.0046716     0.0011294009
       115.98152        1.0032917     0.0011340562
       116.38435        1.0027626     0.0011376721
       117.48721        1.0014642     0.0011570041
       119.18125       0.99979482     0.0011968868
       119.47986       0.99952740     0.0012013110
       121.07837       0.99822098     0.0012324447
       121.51745       0.99788555     0.0012400749
       123.17132       0.99672588     0.0012774034
       123.65039       0.99640730     0.0012847351
       124.10712       0.99611414     0.0012956080
       124.57473       0.99581888     0.0013050202
       125.51935       0.99524530     0.0013282366
       125.78550       0.99509076     0.0013361795
       127.07601       0.99435478     0.0013574155
       128.44236       0.99360740     0.0013870095
       130.51990       0.99253519     0.0014326099
       132.63085       0.99150225     0.0014798412
       134.77604       0.99049837     0.0015308043
       136.95604       0.98951597     0.0015835100
       139.17116       0.98854752     0.0016379361
       141.42217       0.98758840     0.0016938637
       143.70953       0.98663393     0.0017507468
       146.03391       0.98567751     0.0018058427
       148.36331       0.98473062     0.0018623767
       149.58172       0.98423942     0.0018879742
       152.00109       0.98326335     0.0019392165
       152.62606       0.98301553     0.0019490815
       153.25618       0.98276380     0.0019629844
       154.63991       0.98220167     0.0019892427
       157.14100       0.98118058     0.0020369763
       157.80703       0.98091522     0.0020538525
       159.15617       0.98036167     0.0020784744
       159.84149       0.98008494     0.0020956344
       160.52858       0.97980277     0.0021067688
       161.92698       0.97922967     0.0021388568
       164.07195       0.97833991     0.0021830325
       164.79597       0.97804155     0.0022020259
       165.53304       0.97773453     0.0022169578
       165.84769       0.97760289     0.0022253480
       168.53014       0.97647650     0.0022974918
       170.07442       0.97582527     0.0023326299
       170.85487       0.97549669     0.0023602298
       170.95546       0.97545326     0.0023629937
       173.72040       0.97428317     0.0024395460
       176.53024       0.97307990     0.0025185662
       178.64908       0.97216063     0.0026037241
       179.29573       0.97188326     0.0026239780
       182.19581       0.97063215     0.0027158544
       185.14259       0.96934593     0.0028054405
       188.13713       0.96801603     0.0028895762
       189.57547       0.96736571     0.0029414899
       192.52213       0.96603361     0.0030208968
       194.02249       0.96534475     0.0030723968
       195.55875       0.96462500     0.0031068010
       198.68952       0.96315799     0.0032178940
       198.71150       0.96314765     0.0032185183
       201.92546       0.96160859     0.0033112580
       203.58327       0.96079958     0.0033791638
       205.59735       0.95981811     0.0034538224
       208.92255       0.95816946     0.0035806577
       212.30180       0.95645566     0.0037386577
       214.13145       0.95553151     0.0038404716
       215.99667       0.95458784     0.0039155228
       217.89468       0.95359905     0.0040143204
       218.26215       0.95340944     0.0040352054
       221.79254       0.95161002     0.0042394217
       223.79829       0.95057137     0.0043300908
       225.83241       0.94951937     0.0044348612
       227.90803       0.94842121     0.0045138237
       230.02644       0.94728533     0.0046190457
       232.17590       0.94613585     0.0047397129
       232.84083       0.94578606     0.0047664199
       236.60665       0.94375504     0.0049192096
       238.88605       0.94250117     0.0049992786
       240.65266       0.94151579     0.0050492487
       244.54487       0.93927854     0.0051598210
       248.50029       0.93685621     0.0052728277
       251.57610       0.93498692     0.0054150289
       252.63724       0.93434825     0.0055118060
       253.69698       0.93372931     0.0055479865
       256.88232       0.93174814     0.0056648655
       260.06681       0.92971400     0.0058283966
       261.10413       0.92904611     0.0058889148
       265.32727       0.92630817     0.0061404401
       269.61890       0.92346500     0.0064064230
       272.80463       0.92132672     0.0066365580
       273.86519       0.92062121     0.0067002203
       275.98667       0.91918377     0.0068734312
       278.11007       0.91773710     0.0070077006
       279.17464       0.91701073     0.0070944689
       281.29651       0.91556170     0.0072468451
       283.41848       0.91409170     0.0073744281
       286.60252       0.91182493     0.0075917240
       288.72491       0.91031751     0.0077642651
       291.91310       0.90800228     0.0079650420
       294.03147       0.90645443     0.0081404275
       298.28285       0.90327302     0.0084463114
       301.46680       0.90087846     0.0087292986
       304.65206       0.89843871     0.0089433659
       305.71124       0.89764021     0.0090365046
       307.83655       0.89596121     0.0091654191
       309.96062       0.89427101     0.0093403260
       310.73747       0.89364413     0.0094012119
       313.88418       0.89112238     0.0096556483
       316.28635       0.88914262     0.0097890477
       318.72558       0.88704475     0.0099709380
       322.13742       0.88409749      0.010342025
       327.34770       0.87958571      0.010927425
       332.64181       0.87491796      0.011545983
       338.02240       0.87007191      0.012199586
       343.48949       0.86502950      0.012890164
       349.04493       0.85977420      0.013619818
       354.69066       0.85430260      0.014390773
       360.42771       0.84844701      0.015205439
       366.25709       0.84228092      0.016198212
       372.18090       0.83588981      0.017425509
       378.20024       0.82939876      0.018745773
       384.31739       0.82264700      0.020166131
       390.53356       0.81562443      0.021694075
       396.84992       0.80831359      0.023337777
       403.26901       0.80068903      0.025106111
       409.79214       0.79272339      0.027008421
       416.41925       0.78439030      0.029054657
       423.15444       0.77560332      0.031256118
       429.99920       0.76594864      0.033624422
       436.95352       0.75577733      0.036699687
       444.02195       0.74537743      0.040657664
       451.20294       0.73494435      0.045042195
       458.50129       0.72427126      0.049899704
       465.91703       0.71338546      0.055280960
       473.45363       0.70231140      0.061242721
       481.11108       0.69111859      0.067847150
       488.89303       0.67995622      0.075164114
       496.79944       0.66922166      0.083269623
       504.83420       0.65908071      0.091354707
       512.99936       0.64843275      0.098473009
       521.29706       0.63743265       0.10614627
       529.72950       0.62575259       0.11441751
       538.29664       0.61371001       0.12333262
       547.00301       0.60145793       0.13294258
       555.85108       0.58907804       0.14330198
       564.84080       0.57669834       0.15446782
       573.97724       0.56453727       0.16650415
       583.26042       0.55308789       0.17947807
       592.69577       0.54472474       0.19202212
       602.28046       0.53323733       0.20067396
       612.02309       0.51929817       0.21098984
       621.92073       0.50409156       0.22267123
       631.97942       0.48829657       0.23653623
       642.20246       0.47252132       0.25239919
