;  Optical constants for ceramic BeO
;  
;  Concatenation of:
;  
;  BeO_llnl_cxro + BeO_palik
;   
;    Lambda (A)            n            k
;-----------------------------------------
      0.12398425       0.99999994    6.1274800e-13
      0.12651454       0.99999994    6.6776971e-13
      0.13050974       0.99999993    7.6207113e-13
      0.13331640       0.99999993    8.3404388e-13
      0.13776028       0.99999993    9.5831285e-13
      0.14089119       0.99999992    1.0546789e-12
      0.14586382       0.99999992    1.2224146e-12
      0.14937861       0.99999991    1.3525029e-12
      0.15498031       0.99999991    1.5810140e-12
      0.15774078       0.99999990    1.7059750e-12
      0.16078881       0.99999990    1.8524518e-12
      0.16313717       0.99999990    1.9718519e-12
      0.16540055       0.99999989    2.0923370e-12
      0.17220035       0.99999988    2.4891086e-12
      0.17712036       0.99999988    2.8097207e-12
      0.18232978       0.99999987    3.1834999e-12
      0.18552185       0.99999987    3.4303120e-12
      0.19074500       0.99999986    3.8671890e-12
      0.19680040       0.99999985    4.4246083e-12
      0.20160041       0.99999984    4.9078052e-12
      0.20664042       0.99999983    5.4569782e-12
      0.20823690       0.99999983    5.6407119e-12
      0.21193889       0.99999982    6.0852521e-12
      0.21376595       0.99999982    6.3141175e-12
      0.21551234       0.99999982    6.5388929e-12
      0.21828213       0.99999981    6.9099442e-12
      0.22140045       0.99999981    7.3463168e-12
      0.22542591       0.99999980    7.9397945e-12
      0.22960046       0.99999979    8.5925583e-12
      0.23393255       0.99999979    9.3118287e-12
      0.23843125       0.99999978    1.0105844e-11
      0.24310637       0.99999977    1.0984056e-11
      0.24796850       0.99999976    1.1957361e-11
      0.25047323       0.99999975    1.2485587e-11
      0.25302908       0.99999975    1.3042471e-11
      0.25830052       0.99999974    1.4249926e-11
      0.26379628       0.99999973    1.5600103e-11
      0.26663280       0.99999972    1.6333463e-11
      0.26953098       0.99999972    1.7109290e-11
      0.27369592       0.99999971    1.8276687e-11
      0.27861629       0.99999970    1.9730751e-11
      0.28306906       0.99999969    2.1119461e-11
      0.28833547       0.99999967    2.2855525e-11
      0.29310697       0.99999966    2.4526964e-11
      0.29875723       0.99999965    2.6623003e-11
      0.30388297       0.99999964    2.8638434e-11
      0.30996062       0.99999962    3.1174588e-11
      0.31388418       0.99999961    3.2903274e-11
      0.31790833       0.99999960    3.4750145e-11
      0.32203701       0.99999959    3.6724515e-11
      0.32627434       0.99999958    3.8837615e-11
      0.33062467       0.99999957    4.1108780e-11
      0.33509257       0.99999956    4.3543554e-11
      0.33968288       0.99999955    4.6156281e-11
      0.34411393       0.99999954    4.8788370e-11
      0.35123017       0.99999952    5.3264191e-11
      0.35937464       0.99999949    5.8752947e-11
      0.36359018       0.99999948    6.1762788e-11
      0.36681731       0.99999947    6.4143981e-11
      0.37121033       0.99999946    6.7495386e-11
      0.37570985       0.99999945    7.1062300e-11
      0.38031979       0.99999943    7.4867743e-11
      0.38385217       0.99999942    7.7885255e-11
      0.38866536       0.99999941    8.2142846e-11
      0.39360079       0.99999939    8.6687412e-11
      0.39738542       0.99999938    9.0357671e-11
      0.40254627       0.99999937    9.5545621e-11
      0.40784293       0.99999935    1.0109537e-10
      0.41328083       0.99999933    1.0477553e-10
      0.41328221       0.99999933    1.0477704e-10
      0.41996528       0.99999931    1.1215460e-10
      0.41996670       0.99999931    1.1215623e-10
      0.42675785       0.99999929    1.2005358e-10
      0.42675932       0.99999929    1.2005533e-10
      0.43365996       0.99999926    1.2850898e-10
      0.43366148       0.99999926    1.2851088e-10
      0.44067464       0.99999924    1.3756069e-10
      0.44067620       0.99999924    1.3756275e-10
      0.44780188       0.99999922    1.4725058e-10
      0.44780350       0.99999922    1.4725280e-10
      0.45504485       0.99999919    1.5762455e-10
      0.45504652       0.99999919    1.5762711e-10
      0.46240522       0.99999916    1.6872990e-10
      0.46240695       0.99999916    1.6873266e-10
      0.46988471       0.99999914    1.8061904e-10
      0.46988649       0.99999914    1.8062202e-10
      0.47748323       0.99999911    1.9334635e-10
      0.47748507       0.99999911    1.9334957e-10
      0.48520618       0.99999908    2.0697277e-10
      0.48520808       0.99999908    2.0697624e-10
      0.49305362       0.99999905    2.2156087e-10
      0.49305558       0.99999905    2.2156461e-10
      0.50102946       0.99999902    2.3718174e-10
      0.50103149       0.99999902    2.3718578e-10
      0.50913375       0.99999899    2.5390572e-10
      0.50913584       0.99999899    2.5391008e-10
      0.51736847       0.99999895    2.7181041e-10
      0.51737063       0.99999895    2.7181540e-10
      0.52573570       0.99999892    2.9098103e-10
      0.52573793       0.99999892    2.9098641e-10
      0.53423986       0.99999888    3.1150941e-10
      0.53424216       0.99999888    3.1151522e-10
      0.54288101       0.99999885    3.3348921e-10
      0.54288338       0.99999885    3.3349548e-10
      0.55166142       0.99999881    3.5702444e-10
      0.55166388       0.99999881    3.5703121e-10
      0.56058349       0.99999877    3.8222443e-10
      0.56058602       0.99999877    3.8223176e-10
      0.56964967       0.99999873    4.0920964e-10
      0.56965228       0.99999873    4.0921755e-10
      0.57886523       0.99999869    4.3811065e-10
      0.58822755       0.99999865    4.6905625e-10
      0.58823034       0.99999865    4.6906596e-10
      0.59774203       0.99999860    5.0219838e-10
      0.60740863       0.99999856    5.3768804e-10
      0.60741161       0.99999856    5.3769935e-10
      0.61723320       0.99999851    5.7569854e-10
      0.61723627       0.99999851    5.7571071e-10
      0.62721577       0.99999846    6.1628825e-10
      0.62721894       0.99999846    6.1630142e-10
      0.63736268       0.99999841    6.5988919e-10
      0.64767070       0.99999836    7.0658025e-10
      0.64767408       0.99999836    7.0659635e-10
      0.65814639       0.99999830    7.5658808e-10
      0.66878971       0.99999825    8.1013718e-10
      0.66879332       0.99999825    8.1015592e-10
      0.67960781       0.99999819    8.6748738e-10
      0.67961153       0.99999819    8.6750769e-10
      0.69060079       0.99999813    9.2890008e-10
      0.70176851       0.99999807    9.9464691e-10
      0.70177248       0.99999807    9.9467162e-10
      0.71312284       0.99999801    1.0650630e-09
      0.72465574       0.99999794    1.1404358e-09
      0.73637533       0.99999788    1.2211262e-09
      0.73637970       0.99999788    1.2211572e-09
      0.74828597       0.99999781    1.3075172e-09
      0.76038766       0.99999774    1.3999867e-09
      0.76039233       0.99999773    1.4000243e-09
      0.77268974       0.99999766    1.4989674e-09
      0.78518752       0.99999758    1.6048945e-09
      0.79788566       0.99999751    1.7182581e-09
      0.81078912       0.99999742    1.8395806e-09
      0.81079442       0.99999742    1.8396316e-09
      0.82390321       0.99999734    1.9694257e-09
      0.82390868       0.99999734    1.9694827e-09
      0.83722795       0.99999725    2.1083680e-09
      0.83723360       0.99999725    2.1084295e-09
      0.85077472       0.99999716    2.2570760e-09
      0.86453191       0.99999707    2.4161484e-09
      0.87851717       0.99999698    2.5863734e-09
      0.89272445       0.99999688    2.7684747e-09
      0.90716643       0.99999677    2.9633095e-09
      0.92183655       0.99999667    3.1717025e-09
      0.93674824       0.99999656    3.3946444e-09
      0.95189443       0.99999645    3.6330954e-09
      0.95190174       0.99999645    3.6332157e-09
      0.96729692       0.99999633    3.8881905e-09
      0.98294103       0.99999621    4.1609825e-09
      0.99884192       0.99999609    4.4527526e-09
       1.0149914       0.99999596    4.7646321e-09
       1.0314143       0.99999583    5.0982324e-09
       1.0480937       0.99999569    5.4548529e-09
       1.0650470       0.99999555    5.8362162e-09
       1.0822742       0.99999541    6.2439773e-09
       1.0997751       0.99999526    6.6798045e-09
       1.1175592       0.99999510    7.1457803e-09
       1.1175692       0.99999510    7.1460575e-09
       1.1356365       0.99999494    7.6439965e-09
       1.1540074       0.99999477    8.1765538e-09
       1.1726719       0.99999460    8.7457822e-09
       1.1916406       0.99999443    9.3542231e-09
       1.2109138       0.99999425    1.0004503e-08
       1.2305030       0.99999406    1.0699562e-08
       1.2504021       0.99999386    1.1442257e-08
       1.2504034       0.99999386    1.1442305e-08
       1.2706260       0.99999366    1.2235792e-08
       1.2706273       0.99999366    1.2235843e-08
       1.2911771       0.99999345    1.3083935e-08
       1.2911785       0.99999345    1.3083990e-08
       1.3120610       0.99999324    1.3990147e-08
       1.3120623       0.99999324    1.3990207e-08
       1.3332830       0.99999302    1.4958559e-08
       1.3332844       0.99999302    1.4958623e-08
       1.3548474       0.99999279    1.5993117e-08
       1.3548488       0.99999279    1.5993187e-08
       1.3767614       0.99999255    1.7098442e-08
       1.3767630       0.99999255    1.7098516e-08
       1.3990297       0.99999231    1.8279395e-08
       1.4216568       0.99999206    1.9540860e-08
       1.4216584       0.99999206    1.9540947e-08
       1.4446523       0.99999180    2.0888582e-08
       1.4680180       0.99999153    2.2328088e-08
       1.4680197       0.99999153    2.2328211e-08
       1.4917624       0.99999125    2.3865879e-08
       1.5158889       0.99999097    2.5507734e-08
       1.5158908       0.99999097    2.5507851e-08
       1.5404086       0.99999067    2.7261377e-08
       1.5653233       0.99999037    2.9132732e-08
       1.5906408       0.99999005    3.1132767e-08
       1.5906429       0.99999005    3.1132945e-08
       1.6163693       0.99998973    3.3269103e-08
       1.6425127       0.99998939    3.5549292e-08
       1.6690775       0.99998904    3.7985092e-08
       1.6690797       0.99998904    3.7985313e-08
       1.6960747       0.99998868    4.0584025e-08
       1.7235068       0.99998831    4.3359912e-08
       1.7235091       0.99998831    4.3360168e-08
       1.7513829       0.99998793    4.6323919e-08
       1.7513854       0.99998793    4.6324194e-08
       1.7797106       0.99998753    4.9487601e-08
       1.8084974       0.99998712    5.2865347e-08
       1.8377457       0.99998670    5.6469854e-08
       1.8377484       0.99998670    5.6470202e-08
       1.8674717       0.99998627    6.0318676e-08
       1.8976755       0.99998582    6.4428016e-08
       1.9283713       0.99998535    6.8813640e-08
       1.9595592       0.99998487    7.3492995e-08
       1.9912542       0.99998437    7.8485476e-08
       2.0234629       0.99998386    8.3816028e-08
       2.0561883       0.99998333    8.9500757e-08
       2.0894473       0.99998278    9.5570964e-08
       2.1232398       0.99998222    1.0204630e-07
       2.1575837       0.99998164    1.0895596e-07
       2.1924790       0.99998103    1.1632693e-07
       2.2279410       0.99998041    1.2419097e-07
       2.2639777       0.99997977    1.3258289e-07
       2.3005930       0.99997910    1.4153518e-07
       2.3005973       0.99997910    1.4153627e-07
       2.3378037       0.99997842    1.5108511e-07
       2.3378081       0.99997842    1.5108628e-07
       2.3756186       0.99997771    1.6127364e-07
       2.4140424       0.99997698    1.7213521e-07
       2.4530886       0.99997622    1.8372252e-07
       2.4927620       0.99997544    1.9608107e-07
       2.5330824       0.99997463    2.0926091e-07
       2.5740497       0.99997380    2.2331635e-07
       2.5740550       0.99997380    2.2331816e-07
       2.6156849       0.99997294    2.3830790e-07
       2.6579939       0.99997205    2.5429362e-07
       2.7009818       0.99997113    2.7133886e-07
       2.7009877       0.99997113    2.7134112e-07
       2.7446721       0.99997018    2.8951323e-07
       2.7890648       0.99996920    3.0889429e-07
       2.8341719       0.99996818    3.2955601e-07
       2.8800125       0.99996714    3.5158364e-07
       2.8800192       0.99996714    3.5158698e-07
       2.9265934       0.99996606    3.7507233e-07
       2.9266003       0.99996606    3.7507592e-07
       2.9739281       0.99996494    4.0010573e-07
       2.9739352       0.99996494    4.0010963e-07
       3.0220307       0.99996379    4.2679945e-07
       3.0709086       0.99996259    4.5523766e-07
       3.1205765       0.99996136    4.8559070e-07
       3.1205844       0.99996136    4.8559554e-07
       3.1710500       0.99996009    5.1786175e-07
       3.1710581       0.99996009    5.1786694e-07
       3.2223454       0.99995878    5.5221059e-07
       3.2744626       0.99995742    5.8878063e-07
       3.3274268       0.99995601    6.2768423e-07
       3.3812380       0.99995457    6.6909268e-07
       3.3812472       0.99995457    6.6910017e-07
       3.4359325       0.99995307    7.1320778e-07
       3.4915011       0.99995152    7.6010815e-07
       3.4915109       0.99995152    7.6011677e-07
       3.5479724       0.99994992    8.1001833e-07
       3.5479825       0.99994992    8.1002757e-07
       3.6053567       0.99994827    8.6312038e-07
       3.6053672       0.99994827    8.6313030e-07
       3.6636748       0.99994657    9.1962098e-07
       3.7229265       0.99994481    9.7971691e-07
       3.7229377       0.99994481    9.7972832e-07
       3.7831449       0.99994299    1.0436978e-06
       3.7831564       0.99994299    1.0437101e-06
       3.8443417       0.99994111    1.1117512e-06
       3.9065168       0.99993916    1.1841555e-06
       3.9697063       0.99993716    1.2611878e-06
       4.0339103       0.99993508    1.3431256e-06
       4.0991543       0.99993294    1.4302709e-06
       4.1654516       0.99993073    1.5228501e-06
       4.1654656       0.99993073    1.5228700e-06
       4.2328301       0.99992844    1.6213905e-06
       4.3012899       0.99992608    1.7261775e-06
       4.3708599       0.99992364    1.8375969e-06
       4.4415557       0.99992112    1.9560527e-06
       4.5133926       0.99991851    2.0820255e-06
       4.5863867       0.99991582    2.2160060e-06
       4.5864037       0.99991582    2.2160386e-06
       4.6605714       0.99991304    2.3584785e-06
       4.6605890       0.99991304    2.3585134e-06
       4.7359470       0.99991017    2.5099255e-06
       4.7359651       0.99991017    2.5099629e-06
       4.8125488       0.99990720    2.6709750e-06
       4.8125674       0.99990720    2.6710151e-06
       4.8903959       0.99990414    2.8422206e-06
       4.9694879       0.99990097    3.0243000e-06
       4.9695078       0.99990097    3.0243462e-06
       5.0498636       0.99989770    3.2177610e-06
       5.0498841       0.99989770    3.2178104e-06
       5.1315435       0.99989432    3.4235284e-06
       5.1315648       0.99989431    3.4235814e-06
       5.2145492       0.99989082    3.6422565e-06
       5.2988798       0.99988721    3.8746924e-06
       5.2989025       0.99988721    3.8747566e-06
       5.3846029       0.99988349    4.1218664e-06
       5.4716717       0.99987964    4.3844884e-06
       5.4716958       0.99987963    4.3845626e-06
       5.5601809       0.99987566    4.6636605e-06
       5.5602058       0.99987565    4.6637400e-06
       5.6501069       0.99987155    4.9603504e-06
       5.6501326       0.99987155    4.9604357e-06
       5.7415001       0.99986730    5.2756902e-06
       5.7415267       0.99986730    5.2757817e-06
       5.8343608       0.99986291    5.6107164e-06
       5.8343882       0.99986291    5.6108191e-06
       5.9287432       0.99985838    5.9669143e-06
       6.0246190       0.99985370    6.3452751e-06
       6.0246483       0.99985370    6.3453930e-06
       6.1220744       0.99984887    6.7472753e-06
       6.2210796       0.99984388    7.1702070e-06
       6.2211108       0.99984388    7.1703411e-06
       6.3216953       0.99983872    7.6223390e-06
       6.3217276       0.99983872    7.6224839e-06
       6.4239545       0.99983339    8.1030396e-06
       6.4239878       0.99983338    8.1032016e-06
       6.5278575       0.99982788    8.6140389e-06
       6.5278919       0.99982788    8.6142126e-06
       6.6334373       0.99982220    9.1572467e-06
       6.6334728       0.99982219    9.1574329e-06
       6.7407290       0.99981632    9.7347269e-06
       6.7407656       0.99981632    9.7349266e-06
       6.8497693       0.99981026    1.0348755e-05
       6.9605584       0.99980399    1.1001316e-05
       7.0731335       0.99979753    1.1694019e-05
       7.1875344       0.99979085    1.2428978e-05
       7.3038032       0.99978395    1.3205945e-05
       7.4218956       0.99977683    1.4031087e-05
       7.4219400       0.99977683    1.4031400e-05
       7.5419422       0.99976948    1.4908073e-05
       7.5419881       0.99976947    1.4908414e-05
       7.6639458       0.99976188    1.5839694e-05
       7.7879065       0.99975404    1.6829681e-05
       7.9138715       0.99974595    1.7881582e-05
       8.0418913       0.99973759    1.8998480e-05
       8.1719121       0.99972897    2.0185275e-05
       8.1719659       0.99972897    2.0185776e-05
       8.3040923       0.99972008    2.1444151e-05
       8.3041479       0.99972007    2.1444687e-05
       8.4384358       0.99971089    2.2769356e-05
       8.5748842       0.99970142    2.4171917e-05
       8.5749435       0.99970141    2.4172534e-05
       8.7136125       0.99969163    2.5659531e-05
       8.8545632       0.99968153    2.7239188e-05
       8.9977321       0.99967111    2.8914718e-05
       8.9977974       0.99967110    2.8915488e-05
       9.1433138       0.99966035    3.0694294e-05
       9.2911768       0.99964925    3.2583044e-05
       9.4414555       0.99963781    3.4588184e-05
       9.5941507       0.99962600    3.6716812e-05
       9.7493355       0.99961383    3.8977027e-05
       9.9070101       0.99960129    4.1364471e-05
       9.9070893       0.99960128    4.1365679e-05
       10.067252       0.99958836    4.3889718e-05
       10.067334       0.99958835    4.3891025e-05
       10.230061       0.99957502    4.6560916e-05
       10.230146       0.99957501    4.6562312e-05
       10.395520       0.99956126    4.9394967e-05
       10.395607       0.99956125    4.9396479e-05
       10.563718       0.99954707    5.2402811e-05
       10.734567       0.99953246    5.5592549e-05
       10.908153       0.99951740    5.8974916e-05
       10.908249       0.99951739    5.8976818e-05
       11.084571       0.99950189    6.2563924e-05
       11.084670       0.99950188    6.2565960e-05
       11.263923       0.99948591    6.6374262e-05
       11.446109       0.99946946    7.0414743e-05
       11.631229       0.99945254    7.4700936e-05
       11.819280       0.99943514    7.9245582e-05
       11.819393       0.99943513    7.9248355e-05
       12.010486       0.99941725    8.4039927e-05
       12.010603       0.99941723    8.4042876e-05
       12.204736       0.99939882    8.9094549e-05
       12.204856       0.99939881    8.9097719e-05
       12.402158       0.99937986    9.4496330e-05
       12.402208       0.99937985    9.4497697e-05
       12.602753       0.99936038    0.00010023124
       12.602805       0.99936038    0.00010023271
       12.806597       0.99934040    0.00010631951
       12.806650       0.99934039    0.00010632112
       13.013727       0.99931992    0.00011277648
       13.013782       0.99931992    0.00011277821
       13.224225       0.99929898    0.00011957869
       13.224267       0.99929897    0.00011958008
       13.438119       0.99927756    0.00012672742
       13.438163       0.99927756    0.00012672889
       13.655465       0.99925553    0.00013406172
       13.655510       0.99925553    0.00013406324
       13.876323       0.99923285    0.00014182072
       13.876385       0.99923284    0.00014182292
       14.100768       0.99920951    0.00015003039
       14.100833       0.99920950    0.00015003274
       14.328834       0.99918551    0.00015871846
       14.328900       0.99918551    0.00015872104
       14.560602       0.99916081    0.00016803185
       14.560653       0.99916080    0.00016803392
       14.796104       0.99913554    0.00017803462
       14.796157       0.99913553    0.00017803692
       15.035410       0.99910982    0.00018877234
       15.035483       0.99910981    0.00018877568
       15.278592       0.99908365    0.00020015802
       15.278668       0.99908365    0.00020016160
       15.525725       0.99905706    0.00021223173
       15.525784       0.99905706    0.00021223460
       15.776828       0.99903011    0.00022503152
       15.776908       0.99903010    0.00022503570
       16.032018       0.99900291    0.00023844402
       16.032080       0.99900290    0.00023844735
       16.291317       0.99897528    0.00025245099
       16.291381       0.99897527    0.00025245451
       16.554807       0.99894720    0.00026721881
       16.554896       0.99894719    0.00026722386
       16.822578       0.99891883    0.00028284377
       16.822646       0.99891882    0.00028284776
       17.094674       0.99889024    0.00029937598
       17.094744       0.99889023    0.00029938037
       17.371164       0.99886165    0.00031687215
       17.371237       0.99886164    0.00031687684
       17.652119       0.99883341    0.00033493823
       17.652220       0.99883340    0.00033494475
       17.937640       0.99880481    0.00035326646
       17.937718       0.99880480    0.00035327147
       18.227751       0.99877542    0.00037275372
       18.227858       0.99877540    0.00037276106
       18.522584       0.99874572    0.00039417875
       18.522667       0.99874571    0.00039418486
       18.822167       0.99871723    0.00041798679
       18.822253       0.99871722    0.00041799362
       19.126613       0.99869041    0.00044323481
       19.126701       0.99869041    0.00044324227
       19.435949       0.99866571    0.00046958540
       19.436071       0.99866570    0.00046959582
       19.750326       0.99864304    0.00049672637
       19.750420       0.99864303    0.00049673458
       20.069776       0.99862259    0.00052495593
       20.069873       0.99862259    0.00052496472
       20.394394       0.99860542    0.00055474604
       20.394494       0.99860541    0.00055475539
       20.724246       0.99859291    0.00058622165
       20.724350       0.99859290    0.00058623162
       21.059433       0.99858712    0.00061947868
       21.059540       0.99858712    0.00061948956
       21.400061       0.99859133    0.00065469382
       21.400172       0.99859133    0.00065470545
       21.746205       0.99861151    0.00069203036
       21.746320       0.99861152    0.00069204303
       22.097901       0.99866090    0.00073193138
       22.098019       0.99866092    0.00073194503
       22.455342       0.99877903    0.00077413606
       22.455464       0.99877907    0.00077415064
       22.818529       0.99957245    0.00081877061
       22.818655       0.99957273    0.00081878618
       22.824788       0.99977698    0.00081955693
       22.833195       0.99977783    0.00010911544
       23.187585       0.99875646    0.00011554170
       23.187715       0.99875607    0.00011554416
       23.562639       0.99856113    0.00012264170
       23.562773       0.99856106    0.00012264432
       23.943735       0.99842601    0.00013017808
       23.943873       0.99842596    0.00013018090
       24.331009       0.99831278    0.00013818111
       24.331152       0.99831273    0.00013818414
       24.724555       0.99820995    0.00014667661
       24.724703       0.99820991    0.00014667986
       25.124473       0.99811250    0.00015569185
       25.124575       0.99811248    0.00015569419
       25.530810       0.99801783    0.00016526247
       25.530967       0.99801780    0.00016526631
       25.943772       0.99792434    0.00017542381
       25.943881       0.99792431    0.00017542660
       26.363361       0.99783103    0.00018621082
       26.363529       0.99783100    0.00018621525
       26.789797       0.99773717    0.00019766145
       26.789912       0.99773715    0.00019766464
       27.223080       0.99764227    0.00020981694
       27.223259       0.99764223    0.00020982217
       27.663385       0.99754589    0.00022272443
       27.663570       0.99754585    0.00022273003
       28.110837       0.99744773    0.00023643293
       28.111028       0.99744769    0.00023643893
       28.565496       0.99734754    0.00025098544
       28.565693       0.99734749    0.00025099189
       29.027559       0.99724505    0.00026643497
       29.027695       0.99724502    0.00026643969
       29.497024       0.99714011    0.00028283464
       29.497164       0.99714008    0.00028283970
       29.974096       0.99703255    0.00030024425
       29.974313       0.99703250    0.00030025239
       30.458919       0.99692222    0.00031873142
       30.459069       0.99692218    0.00031873726
       30.951570       0.99680897    0.00033835332
       30.951724       0.99680893    0.00033835948
       31.452198       0.99669271    0.00035885717
       31.452358       0.99669267    0.00035886380
       31.960882       0.99657326    0.00038059218
       31.961129       0.99657321    0.00038060278
       32.477865       0.99645033    0.00040308596
       32.478035       0.99645029    0.00040309357
       33.003149       0.99632363    0.00042687183
       33.003325       0.99632359    0.00042688002
       33.536902       0.99619290    0.00045206146
       33.537174       0.99619283    0.00045207469
       34.079396       0.99605817    0.00047874152
       34.079583       0.99605812    0.00047875086
       34.630537       0.99591933    0.00050699146
       34.630828       0.99591925    0.00050700663
       35.190707       0.99577617    0.00053691114
       35.190907       0.99577612    0.00053692216
       35.759908       0.99562858    0.00056859748
       35.760114       0.99562853    0.00056860932
       36.338238       0.99547644    0.00060215109
       36.338557       0.99547636    0.00060217007
       36.926011       0.99531954    0.00063768759
       36.926230       0.99531948    0.00063770112
       37.523228       0.99515776    0.00067532015
       37.523455       0.99515770    0.00067533469
       38.130228       0.99499088    0.00071517595
       38.130463       0.99499081    0.00071519186
       38.746894       0.99481880    0.00075738546
       38.747137       0.99481873    0.00075740246
       39.373579       0.99464117    0.00080208182
       39.373829       0.99464110    0.00080210026
       40.010407       0.99445811    0.00084986594
       40.010665       0.99445804    0.00084988565
       40.657639       0.99426949    0.00090049756
       40.657906       0.99426941    0.00090051863
       41.315138       0.99407521    0.00095414118
       41.315413       0.99407513    0.00095416436
       41.983445       0.99387502     0.0010109899
       41.983729       0.99387493     0.0010110147
       42.662422       0.99366884     0.0010712237
       42.662715       0.99366875     0.0010712503
       43.352501       0.99345649     0.0011350477
       43.352804       0.99345639     0.0011350761
       44.053685       0.99323790     0.0012026589
       44.053998       0.99323780     0.0012026901
       44.766283       0.99301292     0.0012742265
       44.766606       0.99301282     0.0012742599
       45.490294       0.99278150     0.0013499035
       45.490627       0.99278139     0.0013499392
       46.226040       0.99254341     0.0014299571
       46.226385       0.99254330     0.0014299952
       46.973695       0.99229866     0.0015147620
       46.974051       0.99229855     0.0015148038
       47.733433       0.99204756     0.0016046020
       47.733800       0.99204744     0.0016046466
       48.505622       0.99179077     0.0016997788
       48.505812       0.99179071     0.0016998028
       49.290073       0.99150112     0.0018005869
       49.290465       0.99150102     0.0018006320
       49.593700       0.99142428     0.0018358481
       49.693086       0.99140018     0.0018589765
       49.794871       0.99137642     0.0018686691
       49.893058       0.99134733     0.0018636785
       50.087563       0.99127126     0.0018818637
       50.094646       0.99126848     0.0018825324
       50.297870       0.99119559     0.0019059097
       50.400102       0.99115837     0.0019160941
       50.605816       0.99108189     0.0019343025
       50.709305       0.99103922     0.0019485546
       50.813217       0.99099670     0.0019587818
       50.897699       0.99096317     0.0019792056
       50.917556       0.99095524     0.0019840288
       51.127526       0.99088730     0.0020097206
       51.233161       0.99084943     0.0020139878
       51.339234       0.99080101     0.0020265662
       51.445747       0.99075829     0.0020518489
       51.552703       0.99072072     0.0020658771
       51.660104       0.99068195     0.0020845814
       51.721092       0.99066158     0.0020932301
       51.767954       0.99064584     0.0021001207
       51.985010       0.99056151     0.0021259334
       52.094223       0.99052023     0.0021448150
       52.203895       0.99047765     0.0021587722
       52.424630       0.99039529     0.0021994933
       52.557524       0.99034444     0.0022134196
       52.647240       0.99031034     0.0022230500
       52.759255       0.99026404     0.0022374894
       52.871748       0.99021163     0.0022634525
       53.407647       0.99000730     0.0023593299
       53.441487       0.98999436     0.0023654751
       53.556911       0.98995091     0.0023953231
       53.672835       0.98990903     0.0024218856
       53.789262       0.98987355     0.0024394011
       54.023638       0.98978511     0.0024815691
       54.141594       0.98974182     0.0025048398
       54.260066       0.98969183     0.0025220799
       54.271466       0.98968759     0.0025257424
       54.379057       0.98964754     0.0025605081
       54.498571       0.98961353     0.0025888540
       54.741600       0.98953485     0.0026271605
       54.860288       0.98949190     0.0026499919
       55.149211       0.98940372     0.0026992504
       55.226837       0.98938003     0.0027126518
       55.350112       0.98933333     0.0027235169
       55.473937       0.98928375     0.0027432020
       55.598318       0.98923527     0.0027695477
       55.723258       0.98919126     0.0027906863
       55.848761       0.98914567     0.0028156078
       55.974831       0.98910140     0.0028363230
       56.041372       0.98907896     0.0028499600
       56.101471       0.98905873     0.0028623825
       56.228685       0.98901384     0.0028743212
       56.356477       0.98896154     0.0028962913
       56.613813       0.98886397     0.0029453852
       56.873509       0.98876557     0.0029913471
       56.947698       0.98873775     0.0030064506
       57.135599       0.98866730     0.0030451115
       57.533295       0.98852709     0.0031202226
       57.667093       0.98847595     0.0031510236
       57.801515       0.98842713     0.0031668707
       57.868691       0.98839952     0.0031796661
       58.072248       0.98831584     0.0032188796
       58.208568       0.98826417     0.0032541106
       58.345529       0.98821993     0.0032821676
       58.483137       0.98816685     0.0033032494
       58.804899       0.98804910     0.0033714488
       58.899881       0.98801432     0.0033918394
       59.464868       0.98781005     0.0034997585
       59.604947       0.98775503     0.0035323993
       59.751446       0.98769895     0.0035569376
       59.755765       0.98769727     0.0035580358
       59.895773       0.98764309     0.0035939296
       60.627995       0.98739031     0.0037396425
       60.722419       0.98735715     0.0037556068
       61.075985       0.98723308     0.0038162947
       61.530645       0.98705543     0.0038943536
       61.704582       0.98698601     0.0039270849
       61.992125       0.98687129     0.0039819960
       62.300513       0.98675356     0.0040498421
       62.702545       0.98658871     0.0041172721
       62.776835       0.98655826     0.0041299338
       63.096310       0.98642656     0.0042045492
       63.419054       0.98630191     0.0042738302
       63.581667       0.98623368     0.0042998722
       63.716615       0.98616903     0.0043269984
       63.745116       0.98615542     0.0043327947
       63.909407       0.98608487     0.0043876225
       64.071237       0.98602833     0.0044265832
       64.575130       0.98583751     0.0045290520
       64.747453       0.98576963     0.0045689198
       64.913220       0.98570466     0.0046077660
       65.083596       0.98563608     0.0046391975
       65.254868       0.98556940     0.0046775884
       65.600132       0.98542921     0.0047360340
       65.774138       0.98535286     0.0047718303
       65.794382       0.98534352     0.0047749797
       65.949069       0.98527269     0.0047994163
       66.124933       0.98518350     0.0048506987
       66.134104       0.98517946     0.0048527700
       66.858775       0.98486952     0.0050179280
       67.203778       0.98472342     0.0050982223
       67.566349       0.98456543     0.0051869256
       67.939926       0.98439502     0.0052749806
       68.123214       0.98431294     0.0053160231
       68.307118       0.98422445     0.0053794375
       68.499586       0.98413982     0.0054116823
       68.880139       0.98395009     0.0054942632
       69.038928       0.98386098     0.0055448983
       69.458964       0.98362023     0.0056773532
       69.654073       0.98353003     0.0057296146
       69.846347       0.98342946     0.0058276439
       70.155805       0.98330386     0.0059456152
       70.246034       0.98326683     0.0059802710
       70.445597       0.98318263     0.0060458180
       70.642271       0.98309811     0.0061210900
       71.051146       0.98293252     0.0062587088
       71.259411       0.98285125     0.0063025974
       71.290142       0.98283624     0.0063140308
       71.671339       0.98264902     0.0064569164
       72.294023       0.98238712     0.0066693120
       72.443557       0.98231645     0.0067108670
       72.505409       0.98228712     0.0067281648
       72.718035       0.98218362     0.0068032976
       72.931912       0.98207331     0.0068680472
       73.147050       0.98195457     0.0069499821
       73.615234       0.98170414     0.0071632198
       73.800149       0.98160468     0.0072482687
       74.020448       0.98148956     0.0073749335
       74.242066       0.98138472     0.0074920601
       74.689307       0.98121220     0.0077536779
       74.805571       0.98116610     0.0078151397
       74.914955       0.98112267     0.0078732457
       75.370365       0.98096486     0.0081467664
       76.015922       0.98082921     0.0085590883
       76.063957       0.98081914     0.0085900667
       76.533488       0.98078767     0.0088542277
       76.770433       0.98076922     0.0089372947
       77.245385       0.98074085     0.0091285004
       77.248754       0.98074066     0.0091298684
       77.490156       0.98072596     0.0092068789
       77.977516       0.98067619     0.0093306196
       78.471044       0.98062287     0.0094632903
       78.494394       0.98062065     0.0094679529
       78.720159       0.98059931     0.0095134212
       78.970860       0.98056422     0.0095291194
       79.223163       0.98050725     0.0095584748
       79.732637       0.98036748     0.0096205288
       79.763927       0.98035861     0.0096225413
       79.989839       0.98029459     0.0096373656
       80.771498       0.97999550     0.0097686096
       81.035458       0.97987952     0.0098380078
       81.054529       0.97987212     0.0098410598
       81.568586       0.97967233     0.0099242906
       82.108775       0.97944047      0.010077763
       82.365143       0.97934982      0.010158718
       82.656167       0.97924681      0.010251452
       83.210906       0.97904482      0.010340781
       83.491077       0.97893493      0.010414549
       83.697362       0.97885189      0.010448179
       83.773142       0.97882138      0.010460669
       84.630887       0.97838962      0.010634812
       84.920719       0.97823497      0.010723253
       85.051209       0.97816897      0.010770890
       85.212543       0.97808730      0.010830199
       85.506379       0.97794314      0.010918260
       85.802249       0.97780452      0.011041058
       86.100174       0.97767255      0.011131146
       86.400174       0.97755067      0.011252528
       86.426674       0.97754007      0.011258734
       86.702273       0.97742987      0.011323854
       87.006491       0.97729862      0.011414343
       87.312852       0.97715366      0.011482013
       87.621378       0.97701831      0.011580898
       87.824958       0.97692457      0.011602485
       87.932092       0.97687519      0.011614036
       88.560179       0.97645570      0.011708838
       89.197302       0.97596717      0.011948377
       89.245456       0.97593489      0.011972559
       89.519314       0.97575091      0.012110968
       89.843659       0.97553062      0.012225402
       90.170364       0.97529554      0.012399375
       90.688774       0.97499064      0.012657882
       90.830952       0.97490658      0.012729431
       91.164890       0.97470627      0.012854892
       91.501292       0.97447359      0.012953032
       92.155562       0.97393284      0.013199185
       92.181599       0.97391122      0.013209191
       92.525560       0.97359116      0.013305603
       92.872097       0.97320685      0.013424748
       93.221241       0.97272386      0.013523322
       93.645815       0.97199758      0.013849312
       93.927462       0.97151371      0.014067555
       94.284601       0.97082121      0.014573992
       94.644466       0.97003806      0.015025642
       95.007088       0.96936362      0.016138391
       95.160950       0.96913945      0.016489645
       95.372500       0.96883072      0.016974830
       95.740734       0.96840639      0.018271921
       96.111822       0.96812622      0.019495369
       96.485798       0.96811472      0.021037008
       96.700269       0.96816375      0.021815115
       96.862695       0.96820153      0.022406959
       97.242549       0.96886042      0.024523665
       97.625394       0.97019865      0.025948251
       98.011265       0.97189645      0.026955903
       98.263721       0.97296866      0.027190506
       98.400198       0.97355101      0.027318032
       98.792231       0.97530690      0.027446264
       99.187400       0.97653238      0.026588356
       99.853623       0.97778365      0.025636370
       99.987298       0.97803724      0.025443903
       100.39211       0.97800382      0.024576893
       100.80020       0.97782804      0.024631945
       101.21163       0.97796230      0.025084021
       101.46841       0.97846127      0.025295973
       101.62643       0.97877007      0.025427222
       102.04465       0.97970199      0.025234631
       102.46632       0.97998520      0.024089850
       102.89149       0.98003940      0.024456858
       103.10969       0.98015965      0.024337752
       103.75251       0.98051936      0.023984548
       103.97002       0.98067680      0.023997405
       104.18845       0.98067181      0.024165613
       104.40779       0.98099924      0.024425062
       104.62806       0.98141976      0.024645901
       104.77749       0.98195968      0.024765705
       104.84926       0.98221977      0.024823547
       105.07140       0.98314291      0.024551299
       105.29448       0.98414536      0.023917934
       105.51851       0.98446859      0.022351949
       105.74350       0.98413974      0.021485344
       105.96944       0.98371872      0.020999648
       106.19636       0.98336616      0.020509260
       106.42425       0.98294599      0.020383659
       106.47177       0.98289519      0.020364070
       106.65312       0.98270145      0.020289647
       106.88297       0.98255131      0.020312117
       107.11382       0.98253276      0.020228233
       107.34567       0.98244102      0.020004715
       107.81239       0.98192189      0.019799845
       108.04728       0.98159847      0.020028155
       108.19436       0.98141243      0.020205045
       108.28319       0.98130014      0.020312352
       108.52013       0.98103791      0.021008088
       108.75811       0.98129550      0.022296512
       108.99714       0.98230585      0.023492682
       109.23722       0.98461952      0.024819140
       109.47837       0.98823639      0.024418830
       109.72058       0.99080767      0.020788780
       109.94436       0.99062718      0.017195084
       109.96386       0.99061148      0.016881317
       110.20822       0.98916343      0.015139865
       110.45367       0.98842408      0.014462860
       110.70022       0.98840451      0.013179526
       110.89826       0.98754175      0.010597743
       111.09700       0.98545436      0.010031441
       111.16673       0.98495808     0.0099951088
       111.29645       0.98417586     0.0099887752
       111.41647       0.98356497     0.0099942226
       111.54678       0.98299504      0.010026932
       111.66734       0.98253148      0.010048921
       111.72269       0.98233633      0.010055775
       111.79824       0.98206989      0.010065396
       111.92945       0.98164459      0.010099240
       112.04071       0.98131344      0.010116234
       112.17249       0.98093664      0.010138818
       112.43697       0.98025073      0.010200381
       112.54925       0.97998173      0.010224781
       112.68222       0.97967550      0.010251975
       112.81551       0.97938168      0.010286556
       112.94912       0.97910152      0.010315303
       113.19661       0.97860604      0.010375483
       113.33112       0.97835055      0.010413147
       113.46596       0.97810396      0.010442377
       113.52933       0.97799107      0.010459823
       113.59070       0.97788190      0.010476947
       113.71572       0.97766635      0.010507633
       113.98754       0.97721267      0.010578977
       114.11344       0.97701349      0.010615762
       114.23961       0.97681670      0.010642881
       114.37661       0.97660307      0.010681462
       114.50337       0.97641242      0.010720298
       114.76835       0.97603224      0.010794994
       115.04524       0.97564892      0.010869050
       115.36531       0.97523646      0.010959982
       115.98152       0.97443998      0.011138236
       116.38435       0.97395768      0.011256413
       117.23170       0.97301076      0.011511058
       117.48721       0.97272456      0.011589322
       119.12742       0.97107645      0.012102877
       119.18125       0.97102215      0.012120101
       119.47986       0.97073900      0.012214280
       121.05473       0.96931402      0.012720497
       121.07837       0.96929267      0.012728262
       121.51745       0.96891235      0.012872274
       123.01245       0.96766936      0.013372372
       123.17132       0.96753871      0.013426671
       123.65039       0.96715691      0.013588885
       124.10712       0.96679858      0.013746599
       124.57473       0.96643405      0.013907856
       125.00202       0.96610715      0.014057009
       125.51935       0.96571991      0.014222875
       125.78550       0.96552492      0.014309356
       127.02380       0.96462335      0.014704928
       127.07601       0.96458410      0.014721162
       128.44236       0.96357730      0.015153102
       129.07833       0.96312057      0.015356135
       130.51990       0.96206678      0.015824388
       131.16612       0.96160550      0.016036444
       132.63085       0.96054678      0.016525559
       133.28759       0.96008104      0.016747473
       134.77604       0.95901469      0.017259210
       135.44344       0.95854387      0.017491003
       136.95604       0.95746742      0.018025541
       137.63411       0.95699059      0.018267592
       139.17116       0.95590123      0.018825910
       139.86020       0.95541762      0.019078678
       141.42217       0.95431368      0.019661718
       142.12233       0.95382258      0.019925560
       143.70953       0.95270212      0.020534175
       144.42114       0.95220222      0.020809156
       146.03391       0.95106268      0.021443264
       146.75697       0.95055380      0.021730523
       148.36331       0.94941735      0.022379820
       149.13066       0.94887475      0.022691538
       149.58172       0.94855553      0.022877065
       151.54275       0.94716417      0.023691819
       152.00109       0.94683749      0.023885588
       152.62606       0.94639517      0.024148942
       153.25618       0.94594711      0.024418159
       153.99379       0.94541897      0.024733682
       154.63991       0.94495604      0.025013658
       156.48452       0.94362946      0.025821013
       157.14100       0.94315549      0.026113395
       157.80703       0.94267878      0.026414005
       159.01553       0.94180280      0.026958397
       159.15617       0.94170088      0.027022566
       159.84149       0.94120705      0.027338978
       160.52858       0.94070804      0.027654314
       161.58742       0.93993777      0.028147748
       161.92698       0.93969084      0.028308000
       164.07195       0.93812092      0.029326868
       164.20102       0.93802639      0.029389132
       164.79597       0.93759184      0.029679039
       165.53304       0.93705052      0.030037391
       165.84769       0.93681872      0.030192159
       166.85698       0.93607442      0.030691101
       168.53014       0.93483727      0.031532858
       169.55575       0.93407630      0.032051387
       170.07442       0.93369177      0.032317061
       170.85487       0.93311315      0.032724489
       170.95546       0.93303784      0.032776703
       172.29822       0.93203899      0.033477356
       173.72040       0.93097825      0.034232474
       175.08487       0.92995599      0.034964315
       176.53024       0.92886890      0.035754360
       177.91666       0.92782011      0.036529393
       178.64908       0.92726739      0.036947539
       179.29573       0.92678118      0.037315008
       180.79436       0.92565077      0.038173146
       182.19581       0.92459554      0.038989964
       183.71875       0.92344380      0.039885046
       185.14259       0.92236838      0.040736884
       186.69009       0.92119223      0.041669646
       188.13713       0.92009408      0.042557459
       189.57547       0.91899386      0.043455059
       189.70977       0.91889126      0.043538566
       192.52213       0.91674771      0.045317911
       192.77807       0.91655118      0.045482553
       194.02249       0.91560142      0.046293117
       195.55875       0.91441716      0.047291867
       195.89617       0.91415731      0.047515089
       198.68952       0.91201286      0.049395991
       198.71150       0.91199593      0.049410826
       199.06468       0.91172271      0.049649595
       201.92546       0.90951793      0.051618490
       202.28423       0.90923913      0.051870396
       203.58327       0.90823737      0.052794140
       205.55611       0.90671284      0.054206392
       205.59735       0.90668122      0.054236325
       208.88101       0.90414526      0.056645201
       208.92255       0.90411339      0.056676216
       212.25927       0.90153266      0.059209159
       212.30180       0.90150001      0.059242014
       214.13145       0.90010048      0.060672385
       215.69230       0.89890310      0.061890300
       215.99667       0.89867230      0.062130913
       217.89468       0.89721642      0.063653866
       218.26215       0.89693518      0.063951651
       219.18124       0.89623645      0.064699420
       221.79254       0.89427211      0.066862207
       222.72606       0.89356530      0.067635886
       223.79829       0.89276525      0.068536349
       225.83241       0.89124717      0.070266753
       226.32876       0.89087337      0.070687939
       227.90803       0.88970399      0.072046132
       229.98932       0.88815243      0.073868191
       230.02644       0.88812528      0.073901127
       232.17590       0.88655733      0.075827415
       232.84083       0.88607519      0.076421522
       233.70942       0.88544016      0.077200850
       236.60665       0.88336596      0.079846836
       237.48951       0.88272921      0.080658285
       238.88605       0.88174957      0.081959636
       240.65266       0.88050299      0.083612321
       241.33046       0.88001949      0.084250475
       244.54487       0.87780043      0.087331247
       245.23365       0.87731203      0.087998067
       248.50029       0.87510227      0.091217324
       249.20055       0.87463272      0.091921559
       251.57610       0.87319549      0.094347743
       252.63724       0.87255933      0.095468796
       253.23115       0.87221012      0.096078774
       253.69698       0.87196115      0.096511352
       256.88232       0.87019629      0.099498891
       257.32697       0.86994759      0.099923136
       260.06681       0.86827550       0.10243143
       261.10413       0.86764143       0.10339301
       261.48905       0.86740662       0.10375106
       265.32727       0.86498898       0.10736544
       265.71850       0.86474132       0.10773752
       269.61890       0.86225011       0.11149287
       270.01583       0.86199621       0.11188069
       272.80463       0.86021401       0.11463229
       273.86519       0.85954185       0.11567917
       274.38339       0.85921064       0.11619880
       275.98667       0.85819359       0.11781862
       278.11007       0.85684592       0.11995663
       278.82118       0.85639516       0.12068430
       279.17464       0.85617389       0.12104786
       281.29651       0.85484824       0.12322861
       283.33105       0.85356903       0.12532263
       283.41848       0.85351490       0.12541329
       286.60252       0.85151793       0.12875041
       287.91364       0.85070047       0.13014646
       288.72491       0.85020435       0.13101658
       291.91310       0.84823454       0.13442715
       292.57025       0.84782885       0.13514284
       294.03147       0.84694725       0.13674561
       297.30224       0.84495291       0.14034350
       298.28285       0.84437031       0.14143449
       301.46680       0.84248858       0.14503495
       302.11103       0.84210545       0.14576019
       304.65206       0.84064215       0.14864647
       305.71124       0.84004285       0.14987032
       306.99733       0.83929077       0.15134190
       307.83655       0.83881835       0.15230896
       309.96062       0.83762254       0.15479668
       310.73747       0.83718174       0.15570939
       311.96343       0.83649396       0.15715646
       313.88418       0.83546635       0.15944359
       316.28635       0.83416010       0.16228962
       317.00852       0.83375518       0.16315795
       318.72558       0.83284553       0.16523794
       322.13575       0.83104985       0.16947420
       322.13742       0.83104904       0.16947630
       327.34683       0.82854324       0.17607261
       327.34770       0.82854286       0.17607372
       332.64091       0.82628013       0.18292864
       332.64181       0.82627983       0.18292982
       338.02148       0.82441631       0.19005446
       338.02240       0.82441620       0.19005563
       343.48854       0.82364150       0.19704333
       343.48949       0.82364127       0.19704429
       349.04395       0.82234469       0.20272000
       349.04493       0.82234437       0.20272101
       354.68965       0.82055762       0.20856676
       354.69066       0.82055725       0.20856782
       360.42667       0.81840413       0.21458858
       360.42771       0.81840371       0.21458969
       366.25600       0.81604692       0.22086820
       366.25709       0.81604647       0.22086937
       372.17978       0.81358437       0.22744382
       372.18090       0.81358389       0.22744507
       378.20024       0.81112083       0.23423751
       384.31739       0.80858978       0.24125588
       390.53233       0.80600678       0.24850733
       390.53356       0.80600626       0.24850877
       396.84992       0.80337885       0.25600543
       403.26770       0.80071394       0.26375558
       403.26901       0.80071339       0.26375718
       409.79078       0.79801306       0.27177215
       409.79214       0.79801252       0.27177383
       416.41925       0.79528010       0.28006423
       423.15444       0.79248743       0.28864338
       50420.0       1.47260      0.112500
       55700.0       1.42550     0.0735000
       61550.0       1.35710     0.0743000
       64690.0       1.31500     0.0697000
       68000.0       1.26170     0.0586000
       69370.0       1.21320     0.0544000
       69720.0       1.19680     0.0611000
       70420.0       1.17110     0.0831000
       70770.0       1.16360      0.100600
       71480.0       1.17140      0.135400
       71840.0       1.18380      0.143500
       72200.0       1.19720      0.143000
       72920.0       1.20400      0.125900
       73290.0       1.20020      0.118500
       74020.0       1.19000      0.108700
       74390.0       1.18500      0.105800
       75140.0       1.17440     0.0969000
       75510.0       1.16700     0.0916000
       76270.0       1.14690     0.0822000
       76650.0       1.13690     0.0802000
       77420.0       1.11690     0.0786000
       77800.0       1.10720     0.0760000
       78590.0       1.08580     0.0695000
       79370.0       1.06210     0.0638000
       79770.0       1.04840     0.0621000
       80570.0       1.01800     0.0607000
       81370.0      0.990000     0.0633000
       81790.0      0.977000     0.0623000
       82600.0      0.947600     0.0632000
       83020.0      0.934700     0.0604000
       83850.0      0.899600     0.0553000
       84690.0      0.858600     0.0512000
       85110.0      0.835400     0.0505000
       85960.0      0.787400     0.0523000
       86830.0      0.738800     0.0555000
       87700.0      0.677800     0.0587000
       89020.0      0.573300     0.0678000
       89910.0      0.479700     0.0777000
       90810.0      0.359000      0.121600
       91730.0      0.246900      0.217300
       92180.0      0.209800      0.279400
       93110.0      0.160200      0.410300
       94040.0      0.146300      0.527700
       94980.0      0.150700      0.624600
       95930.0      0.153100      0.704100
       96900.0      0.151000      0.778300
       97870.0      0.146600      0.853500
       98850.0      0.145300      0.930900
       99840.0      0.148800       1.00800
       100800.      0.156400       1.08320
       101900.      0.166900       1.15560
       102900.      0.179100       1.22480
       103900.      0.191100       1.29190
       104900.      0.203200       1.35800
       106000.      0.215100       1.42350
       107600.      0.232000       1.52150
       108700.      0.242400       1.58760
       109800.      0.252500       1.65500
       110900.      0.262200       1.72420
       112000.      0.270400       1.79570
       113700.      0.280400       1.90970
       114800.      0.287200       1.99380
       116000.      0.295900       2.08180
       117700.      0.312500       2.22350
       118900.      0.322400       2.32820
       120100.      0.335900       2.44190
       121900.      0.363000       2.63360
       123100.      0.391200       2.77910
       125000.      0.455100       3.02360
       126200.      0.518400       3.20610
       128100.      0.655900       3.50650
       129400.      0.791800       3.72300
       131400.       1.06950       4.03850
       133300.       1.40920       4.33190
       134700.       1.65650       4.52460
       136700.       2.12430       4.89100
       138800.       2.93430       5.26510
       140800.       4.12660       5.18340
       143000.       5.10680       4.37530
       144400.       5.43890       3.74390
       146600.       5.65950       2.83320
       148800.       5.53840       2.05070
       151800.       5.14460       1.32330
       154100.       4.80860       1.04890
       156400.       4.55460      0.844800
       158800.       4.35840      0.729800
       161200.       4.18150      0.616600
       163600.       4.03670      0.544500
       166100.       3.90540      0.478600
       169400.       3.74420      0.417300
       171900.       3.64850      0.399300
       175400.       3.53870      0.366200
       178100.       3.47280      0.356600
       181700.       3.39310      0.338200
       185300.       3.33610      0.323800
       188100.       3.29780      0.309100
       191900.       3.24640      0.289200
       195700.       3.20340      0.270100
       199700.       3.15950      0.249900
       203700.       3.11290      0.237500
       207800.       3.07340      0.232300
       213100.       3.03750      0.227700
       217400.       3.01790      0.219900
       221800.       2.99610      0.207100
       227400.       2.96830      0.192800
       233100.       2.93760      0.180100
       237800.       2.91650      0.171800
       243800.       2.89050      0.166500
       249900.       2.86830      0.160200
       256300.       2.84850      0.156400
       262500.       2.83270      0.152200
       270700.       2.81380      0.145700
       277500.       2.80090      0.139700
       284600.       2.78690      0.136000
       294600.       2.77070      0.129800
       302100.       2.75990      0.125500
       312900.       2.74590      0.119800
       322500.       2.73480      0.115100
       333800.       2.72270      0.110100
       344000.       2.71310      0.106100
       356100.       2.70270      0.101800
       370600.       2.69170     0.0973000
       383900.       2.68280     0.0938000
       399500.       2.67350     0.0903000
       415800.       2.66500     0.0871000
       434800.       2.65620     0.0841000
       452500.       2.64910     0.0819000
       475700.       2.64100     0.0798000
       500000.       2.63360     0.0784000
       525500.       2.62700     0.0779000
       552500.       2.62080     0.0799000
