;  Optical constants for 
;  
;  Concatenation of:
;
;  CaF2_llnl_cxro + CaF2_palik  
;   
;    Lambda (A)            n            k
;-----------------------------------------
      0.12398425       0.99999994    1.4900864e-11
      0.12460729       0.99999994    1.5214180e-11
      0.12523662       0.99999993    1.5535581e-11
      0.12651454       0.99999993    1.6204198e-11
      0.12848109       0.99999993    1.7276244e-11
      0.13050974       0.99999993    1.8436142e-11
      0.13189814       0.99999993    1.9264343e-11
      0.13331640       0.99999993    2.0138383e-11
      0.13550191       0.99999992    2.1545575e-11
      0.13776028       0.99999992    2.3074455e-11
      0.13930815       0.99999992    2.4169387e-11
      0.14089119       0.99999992    2.5328499e-11
      0.14333439       0.99999991    2.7201894e-11
      0.14586382       0.99999991    2.9247210e-11
      0.14760030       0.99999991    3.0719381e-11
      0.14937861       0.99999991    3.2282906e-11
      0.15064915       0.99999991    3.3438464e-11
      0.15212791       0.99999990    3.4821610e-11
      0.15344585       0.99999990    3.6089226e-11
      0.15498031       0.99999990    3.7608000e-11
      0.15634836       0.99999990    3.9002672e-11
      0.15774078       0.99999990    4.0460988e-11
      0.15915822       0.99999989    4.1988707e-11
      0.16078881       0.99999989    4.3798594e-11
      0.16313717       0.99999989    4.6509383e-11
      0.16421755       0.99999989    4.7798832e-11
      0.16540055       0.99999989    4.9240709e-11
      0.16709468       0.99999988    5.1364350e-11
      0.16868605       0.99999988    5.3419894e-11
      0.17030804       0.99999988    5.5580762e-11
      0.17220035       0.99999988    5.8182242e-11
      0.17462570       0.99999987    6.1652240e-11
      0.17712036       0.99999987    6.5382495e-11
      0.17968732       0.99999987    6.9394355e-11
      0.18232978       0.99999986    7.3710364e-11
      0.18395289       0.99999986    7.6462066e-11
      0.18552185       0.99999986    7.9195734e-11
      0.18813998       0.99999985    8.3921568e-11
      0.19074500       0.99999985    8.8832774e-11
      0.19372539       0.99999984    9.4708195e-11
      0.19680040       0.99999984    1.0107451e-10
      0.19901164       0.99999983    1.0584880e-10
      0.20160041       0.99999983    1.1165394e-10
      0.20392146       0.99999983    1.1706398e-10
      0.20664042       0.99999982    1.2364431e-10
      0.20733152       0.99999982    1.2535796e-10
      0.20823690       0.99999982    1.2763038e-10
      0.21193889       0.99999981    1.3724778e-10
      0.21376595       0.99999981    1.4219153e-10
      0.21551234       0.99999981    1.4704256e-10
      0.21828213       0.99999980    1.5499171e-10
      0.22140045       0.99999980    1.6432603e-10
      0.22542591       0.99999979    1.7699775e-10
      0.22749404       0.99999978    1.8378137e-10
      0.22960046       0.99999978    1.9088445e-10
      0.23174626       0.99999978    1.9833881e-10
      0.23393255       0.99999977    2.0615137e-10
      0.23616048       0.99999977    2.1435715e-10
      0.23843125       0.99999976    2.2296574e-10
      0.24074612       0.99999976    2.3201593e-10
      0.24310637       0.99999975    2.4151902e-10
      0.24551337       0.99999975    2.5152015e-10
      0.24796850       0.99999974    2.6203125e-10
      0.25047323       0.99999974    2.7307150e-10
      0.25302908       0.99999973    2.8469640e-10
      0.25563763       0.99999973    2.9694887e-10
      0.25830052       0.99999972    3.0985160e-10
      0.26101947       0.99999972    3.2347325e-10
      0.26379628       0.99999971    3.3783253e-10
      0.26663280       0.99999970    3.5300011e-10
      0.26953098       0.99999970    3.6902529e-10
      0.27369592       0.99999969    3.9300998e-10
      0.27861629       0.99999968    4.2280876e-10
      0.28306906       0.99999966    4.5120089e-10
      0.28833547       0.99999965    4.8661516e-10
      0.29310697       0.99999964    5.2044664e-10
      0.29590513       0.99999963    5.4110584e-10
      0.29875723       0.99999963    5.6277496e-10
      0.30166484       0.99999962    5.8555260e-10
      0.30388297       0.99999961    6.0337888e-10
      0.30689171       0.99999961    6.2823305e-10
      0.30996062       0.99999960    6.5434926e-10
      0.31388418       0.99999959    6.8884050e-10
      0.31790833       0.99999958    7.2562418e-10
      0.32203701       0.99999957    7.6488581e-10
      0.32627434       0.99999955    8.0682857e-10
      0.33062467       0.99999954    8.5162530e-10
      0.33509257       0.99999953    8.9956084e-10
      0.33968288       0.99999952    9.5090515e-10
      0.34411393       0.99999950    1.0025359e-09
      0.34729482       0.99999949    1.0408850e-09
      0.35123017       0.99999948    1.0898499e-09
      0.35525573       0.99999947    1.1416849e-09
      0.35937464       0.99999946    1.1965261e-09
      0.36359018       0.99999945    1.2546885e-09
      0.36681731       0.99999944    1.3006350e-09
      0.37121033       0.99999942    1.3652076e-09
      0.37570985       0.99999941    1.4338240e-09
      0.38031979       0.99999939    1.5066732e-09
      0.38385217       0.99999938    1.5643559e-09
      0.38866536       0.99999937    1.6456150e-09
      0.39360079       0.99999935    1.7322033e-09
      0.39738542       0.99999934    1.8008930e-09
      0.40254627       0.99999932    1.8978488e-09
      0.40784293       0.99999930    2.0013995e-09
      0.41328083       0.99999928    2.1518450e-09
      0.41996528       0.99999926    2.2958152e-09
      0.42675785       0.99999924    2.4493134e-09
      0.43365996       0.99999921    2.6129507e-09
      0.44067464       0.99999919    2.7874175e-09
      0.44780188       0.99999916    2.9734075e-09
      0.45504485       0.99999913    3.1716758e-09
      0.46240522       0.99999910    3.3830273e-09
      0.46988471       0.99999907    3.6083153e-09
      0.47748323       0.99999904    3.8484158e-09
      0.48520618       0.99999901    4.1043480e-09
      0.49305362       0.99999898    4.3770770e-09
      0.50102946       0.99999895    4.6678026e-09
      0.50913375       0.99999891    4.9775611e-09
      0.51736847       0.99999888    5.3076853e-09
      0.52573570       0.99999884    5.6594142e-09
      0.53423986       0.99999880    6.0342349e-09
      0.54288101       0.99999876    6.4335654e-09
      0.55166142       0.99999872    6.8590580e-09
      0.56058349       0.99999868    7.3122956e-09
      0.56964967       0.99999864    7.7951699e-09
      0.57886523       0.99999859    8.3096619e-09
      0.58822755       0.99999855    8.8576061e-09
      0.59774203       0.99999850    9.4412957e-09
      0.60740863       0.99999845    1.0062915e-08
      0.61723320       0.99999840    1.0725058e-08
      0.62721577       0.99999835    1.1427168e-08
      0.63736268       0.99999829    1.2177566e-08
      0.64767070       0.99999824    1.2976199e-08
      0.65814639       0.99999818    1.3826311e-08
      0.66878971       0.99999812    1.4730979e-08
      0.67960781       0.99999806    1.5693918e-08
      0.69060079       0.99999799    1.6718760e-08
      0.70176851       0.99999793    1.7809271e-08
      0.71312284       0.99999786    1.8970000e-08
      0.72465574       0.99999779    2.0204941e-08
      0.73637533       0.99999772    2.1518972e-08
      0.74828597       0.99999764    2.2917309e-08
      0.76038766       0.99999756    2.4405064e-08
      0.77268974       0.99999748    2.5988286e-08
      0.78518752       0.99999740    2.7672503e-08
      0.79788566       0.99999732    2.9464172e-08
      0.81078912       0.99999723    3.1370270e-08
      0.82390321       0.99999714    3.3398140e-08
      0.83722795       0.99999704    3.5555301e-08
      0.85077472       0.99999695    3.7850436e-08
      0.86453191       0.99999685    4.0291107e-08
      0.87851717       0.99999674    4.2887670e-08
      0.89272445       0.99999664    4.5648937e-08
      0.90716643       0.99999653    4.8586350e-08
      0.92183655       0.99999641    5.1709887e-08
      0.93674824       0.99999630    5.5032215e-08
      0.95189443       0.99999617    5.8564656e-08
      0.96729692       0.99999605    6.2322587e-08
      0.98294103       0.99999592    6.6317616e-08
      0.99884192       0.99999579    7.0566419e-08
       1.0149914       0.99999565    7.5082856e-08
       1.0314143       0.99999550    7.9886855e-08
       1.0480937       0.99999536    8.4993126e-08
       1.0650470       0.99999520    9.0422769e-08
       1.0822742       0.99999505    9.6195039e-08
       1.0997751       0.99999489    1.0233050e-07
       1.1175592       0.99999472    1.0885291e-07
       1.1356365       0.99999454    1.1578712e-07
       1.1540074       0.99999437    1.2315826e-07
       1.1726719       0.99999418    1.3099219e-07
       1.1916406       0.99999399    1.3931926e-07
       1.2109138       0.99999379    1.4816853e-07
       1.2305030       0.99999359    1.5757424e-07
       1.2504021       0.99999338    1.6756795e-07
       1.2706260       0.99999316    1.7818162e-07
       1.2911771       0.99999294    1.8947320e-07
       1.3120610       0.99999271    2.0146739e-07
       1.3332830       0.99999247    2.1419999e-07
       1.3548474       0.99999222    2.2773839e-07
       1.3767614       0.99999197    2.4212570e-07
       1.3990297       0.99999171    2.5738709e-07
       1.4216568       0.99999144    2.7361555e-07
       1.4446523       0.99999116    2.9085929e-07
       1.4680180       0.99999087    3.0917197e-07
       1.4917624       0.99999057    3.2861210e-07
       1.5158889       0.99999026    3.4924978e-07
       1.5404086       0.99998994    3.7117981e-07
       1.5653233       0.99998962    3.9446967e-07
       1.5906408       0.99998928    4.1918723e-07
       1.6163693       0.99998893    4.4542982e-07
       1.6425127       0.99998857    4.7329945e-07
       1.6690775       0.99998820    5.0288065e-07
       1.6960747       0.99998781    5.3427237e-07
       1.7235068       0.99998742    5.6760611e-07
       1.7513829       0.99998701    6.0297440e-07
       1.7797106       0.99998659    6.4051859e-07
       1.8084974       0.99998616    6.8034273e-07
       1.8377457       0.99998571    7.2260950e-07
       1.8674717       0.99998525    7.6745612e-07
       1.8976755       0.99998477    8.1502653e-07
       1.9283713       0.99998428    8.6550091e-07
       1.9595592       0.99998378    9.1900586e-07
       1.9912542       0.99998326    9.7577404e-07
       2.0234629       0.99998272    1.0359813e-06
       2.0561883       0.99998217    1.0998103e-06
       2.0894473       0.99998160    1.1674979e-06
       2.1232398       0.99998102    1.2392534e-06
       2.1575837       0.99998042    1.3152979e-06
       2.1924790       0.99997980    1.3959086e-06
       2.2279410       0.99997916    1.4813386e-06
       2.2639777       0.99997851    1.5718744e-06
       2.3005973       0.99997784    1.6677877e-06
       2.3378081       0.99997715    1.7694074e-06
       2.3756186       0.99997644    1.8770560e-06
       2.4140424       0.99997571    1.9910374e-06
       2.4530886       0.99997497    2.1117583e-06
       2.4927620       0.99997421    2.2395561e-06
       2.5330824       0.99997344    2.3748883e-06
       2.5740550       0.99997265    2.5181203e-06
       2.6156849       0.99997184    2.6696912e-06
       2.6579939       0.99997102    2.8300978e-06
       2.7009877       0.99997020    2.9998153e-06
       2.7446721       0.99996937    3.1793013e-06
       2.7890648       0.99996854    3.3691674e-06
       2.8341719       0.99996773    3.5699119e-06
       2.8800192       0.99996694    3.7821789e-06
       2.9266003       0.99996622    4.0065023e-06
       2.9739352       0.99996563    4.2435498e-06
       3.0220307       0.99996541    4.4941187e-06
       3.0699809       0.99997226    4.7543184e-06
       3.0701330       0.99997226    9.3310150e-07
       3.0709086       0.99996930    9.3398791e-07
       3.1205844       0.99996330    9.9228720e-07
       3.1710581       0.99996130    1.0542160e-06
       3.2223454       0.99995956    1.1200049e-06
       3.2744626       0.99995790    1.1899025e-06
       3.3274268       0.99995627    1.2642339e-06
       3.3812472       0.99995462    1.3431384e-06
       3.4359325       0.99995295    1.4269749e-06
       3.4915109       0.99995125    1.5160985e-06
       3.5479825       0.99994951    1.6107557e-06
       3.6053672       0.99994772    1.7113562e-06
       3.6636748       0.99994589    1.8182142e-06
       3.7229377       0.99994400    1.9317326e-06
       3.7831564       0.99994206    2.0524074e-06
       3.8443417       0.99994006    2.1805369e-06
       3.9065168       0.99993800    2.3167036e-06
       3.9697063       0.99993587    2.4614066e-06
       4.0339103       0.99993368    2.6150768e-06
       4.0991543       0.99993141    2.7783143e-06
       4.1654656       0.99992908    2.9518197e-06
       4.2328301       0.99992667    3.1361102e-06
       4.3012899       0.99992418    3.3318472e-06
       4.3708599       0.99992161    3.5398188e-06
       4.4415557       0.99991896    3.7607259e-06
       4.5133926       0.99991622    3.9954092e-06
       4.5864037       0.99991339    4.2446884e-06
       4.6605890       0.99991047    4.5094385e-06
       4.7359651       0.99990746    4.7907302e-06
       4.8125674       0.99990434    5.0894311e-06
       4.8903959       0.99990112    5.4066885e-06
       4.9695078       0.99989780    5.7436817e-06
       5.0498841       0.99989437    6.1016593e-06
       5.1315648       0.99989082    6.4817529e-06
       5.2145492       0.99988716    6.8853776e-06
       5.2989025       0.99988338    7.3141267e-06
       5.3846029       0.99987947    7.7693553e-06
       5.4716958       0.99987544    8.2527714e-06
       5.5602058       0.99987127    8.7660909e-06
       5.6501326       0.99986697    9.3111651e-06
       5.7415267       0.99986253    9.8899215e-06
       5.8343882       0.99985794    1.0504355e-05
       5.9287432       0.99985320    1.1156640e-05
       6.0246483       0.99984830    1.1849172e-05
       6.1220744       0.99984325    1.2584159e-05
       6.2211108       0.99983803    1.3358629e-05
       6.3217276       0.99983264    1.4185246e-05
       6.4239878       0.99982707    1.5063027e-05
       6.5278919       0.99982132    1.5995149e-05
       6.6334728       0.99981539    1.6984987e-05
       6.7407656       0.99980927    1.8035859e-05
       6.8497693       0.99980295    1.9151437e-05
       6.9605584       0.99979643    2.0336172e-05
       7.0731335       0.99978970    2.1592962e-05
       7.1875344       0.99978275    2.2925533e-05
       7.3038032       0.99977559    2.4334666e-05
       7.4219400       0.99976820    2.5829780e-05
       7.5419881       0.99976057    2.7416302e-05
       7.6639458       0.99975270    2.9099067e-05
       7.7879065       0.99974459    3.0886874e-05
       7.9138715       0.99973623    3.2784857e-05
       8.0418913       0.99972761    3.4798543e-05
       8.1719659       0.99971874    3.6934637e-05
       8.3041479       0.99970962    3.9194844e-05
       8.4384358       0.99970023    4.1544388e-05
       8.5749435       0.99969052    4.4027645e-05
       8.7136125       0.99968052    4.6653329e-05
       8.8545632       0.99967020    4.9434993e-05
       8.9977974       0.99965957    5.2378971e-05
       9.1433138       0.99964863    5.5495167e-05
       9.2911768       0.99963736    5.8796500e-05
       9.4414555       0.99962575    6.2291501e-05
       9.5941507       0.99961382    6.5990401e-05
       9.7493355       0.99960154    6.9887790e-05
       9.9070893       0.99958889    7.4015846e-05
       10.067334       0.99957588    7.8386953e-05
       10.230146       0.99956252    8.3017449e-05
       10.395607       0.99954879    8.7904892e-05
       10.563718       0.99953468    9.3066893e-05
       10.734567       0.99952019    9.8527408e-05
       10.908249       0.99950529    0.00010431002
       11.084670       0.99949002    0.00011043041
       11.263923       0.99947437    0.00011690905
       11.446109       0.99945833    0.00012376369
       11.631229       0.99944190    0.00013101682
       11.819393       0.99942510    0.00013869797
       12.010603       0.99940795    0.00014681399
       12.204856       0.99939045    0.00015538779
       12.402208       0.99937263    0.00016438888
       12.602805       0.99935443    0.00017387067
       12.806650       0.99933587    0.00018386271
       13.013782       0.99931697    0.00019443245
       13.224267       0.99929777    0.00020560769
       13.438163       0.99927832    0.00021742436
       13.655510       0.99925873    0.00022991158
       13.876385       0.99923902    0.00024296122
       14.100833       0.99921907    0.00025663478
       14.328900       0.99919898    0.00027107778
       14.560653       0.99917888    0.00028634451
       14.796157       0.99915888    0.00030248230
       15.035483       0.99913914    0.00031954270
       15.278668       0.99911986    0.00033756456
       15.525784       0.99910127    0.00035660325
       15.776908       0.99908375    0.00037671713
       16.032080       0.99906777    0.00039788168
       16.291381       0.99905388    0.00042012793
       16.554896       0.99904313    0.00044358179
       16.822646       0.99903730    0.00046834400
       17.094744       0.99903991    0.00049449633
       17.371237       0.99905983    0.00052210945
       17.652220       0.99913538    0.00055081167
       17.793377       0.99948998    0.00056531243
       17.798486       0.99949006    0.00028345965
       17.937718       0.99912243    0.00029059765
       18.227858       0.99899945    0.00030601970
       18.522667       0.99892562    0.00032283311
       18.822253       0.99886536    0.00034135362
       19.126701       0.99881160    0.00036093548
       19.436071       0.99876124    0.00038132342
       19.750420       0.99871259    0.00040235561
       20.069873       0.99866480    0.00042416272
       20.394494       0.99861716    0.00044699859
       20.724350       0.99856950    0.00047106796
       21.059540       0.99852171    0.00049644632
       21.400172       0.99847369    0.00052323437
       21.746320       0.99842542    0.00055153384
       22.098019       0.99837701    0.00058155184
       22.455464       0.99832879    0.00061296215
       22.818655       0.99828029    0.00064545569
       23.187715       0.99823134    0.00067967047
       23.562773       0.99818225    0.00071563456
       23.943873       0.99813306    0.00075332942
       24.331152       0.99808390    0.00079292150
       24.724703       0.99803485    0.00083457569
       25.124575       0.99798626    0.00087841918
       25.530967       0.99793843    0.00092456221
       25.943881       0.99789182    0.00097313456
       26.363529       0.99784715     0.0010242899
       26.789912       0.99780585     0.0010781358
       27.223259       0.99777041     0.0011318259
       27.663570       0.99773798     0.0011824858
       28.111028       0.99770695     0.0012269549
       28.565693       0.99767144     0.0012714253
       29.027695       0.99763512     0.0013175609
       29.497164       0.99759907     0.0013654486
       29.974313       0.99756394     0.0014151682
       30.459069       0.99753038     0.0014667862
       30.951724       0.99749675     0.0015203973
       31.452358       0.99746379     0.0015807036
       31.961129       0.99744149     0.0016554588
       32.478035       0.99743588     0.0017341380
       33.003325       0.99745026     0.0018169987
       33.537174       0.99749173     0.0019038553
       34.079583       0.99757476     0.0019948690
       34.630828       0.99773067     0.0020902645
       35.190907       0.99805285     0.0021902316
       35.760114       0.99948808     0.0022950195
       35.802556        1.0004576     0.0023028588
       35.823245        1.0004606    0.00044142873
       36.338557       0.99811451    0.00046132171
       36.926230       0.99761484    0.00048485110
       37.523455       0.99728943    0.00050961031
       38.130463       0.99702731    0.00053566887
       38.747137       0.99679609    0.00056308644
       39.373829       0.99658170    0.00059194142
       40.010665       0.99637700    0.00062287457
       40.657906       0.99617825    0.00065550594
       41.315413       0.99598260    0.00068986911
       41.983729       0.99578810    0.00072545467
       42.662715       0.99559284    0.00076270746
       43.352804       0.99539585    0.00080189858
       44.053998       0.99519635    0.00084312287
       44.766606       0.99499336    0.00088650116
       45.490627       0.99478611    0.00093227400
       46.226385       0.99457484    0.00098307539
       46.974051       0.99436052     0.0010365193
       47.733800       0.99414226     0.0010928717
       48.505812       0.99391996     0.0011522797
       49.290465       0.99369401     0.0012141673
       50.087563       0.99346271     0.0012766901
       50.897699       0.99322455     0.0013424514
       51.721092       0.99298026     0.0014115232
       52.557524       0.99273016     0.0014839484
       53.407647       0.99247404     0.0015598314
       54.271466       0.99221101     0.0016364808
       55.149211       0.99193928     0.0017169795
       56.041372       0.99165924     0.0018015479
       56.947698       0.99137092     0.0018903700
       57.868691       0.99107400     0.0019836775
       58.804899       0.99076789     0.0020816951
       59.755765       0.99045168     0.0021851978
       60.722419       0.99012682     0.0022967556
       61.704582       0.98979425     0.0024139802
       62.702545       0.98945296     0.0025372225
       63.716615       0.98910273     0.0026667991
       64.747453       0.98874336     0.0028030591
       65.794382       0.98837507     0.0029454184
       66.858775       0.98799651     0.0030946858
       67.939926       0.98760768     0.0032518226
       69.038928       0.98720923     0.0034174467
       70.155805       0.98680137     0.0035915836
       71.290142       0.98638468     0.0037745874
       72.443557       0.98596001     0.0039670220
       73.615234       0.98553038     0.0041692667
       74.805571       0.98509628     0.0043654375
       76.015922       0.98464139     0.0045672827
       77.245385       0.98417241     0.0047778620
       78.494394       0.98368916     0.0049977495
       79.763927       0.98319173     0.0052265611
       81.054529       0.98267967     0.0054663396
       82.365143       0.98215425     0.0057174299
       83.697362       0.98161560     0.0059805663
       85.051209       0.98106801     0.0062563637
       86.426674       0.98051414     0.0065331897
       87.824958       0.97993279     0.0068157624
       89.245456       0.97933194     0.0071116981
       90.688774       0.97871285     0.0074217236
       92.155562       0.97807590     0.0077465759
       93.645815       0.97742228     0.0080869156
       95.160950       0.97675302     0.0084437824
       96.700269       0.97606754     0.0088066372
       98.263721       0.97535565     0.0091843859
       99.853623       0.97461776     0.0095876085
       101.46841       0.97386708      0.010013427
       103.10969       0.97310044      0.010459191
       104.77749       0.97231897      0.010925751
       106.47177       0.97152941      0.011414106
       108.19436       0.97072541      0.011896202
       109.94436       0.96988552      0.012398230
       111.72269       0.96901977      0.012923981
       113.52933       0.96813114      0.013474432
       115.36531       0.96722055      0.014050886
       117.23170       0.96629215      0.014654870
       119.12742       0.96535129      0.015278479
       121.05473       0.96438065      0.015920260
       123.01245       0.96338890      0.016594889
       125.00202       0.96239065      0.017284811
       127.02380       0.96135612      0.017989051
       129.07833       0.96029573      0.018725708
       131.16612       0.95922205      0.019496286
       133.28759       0.95813331      0.020251399
       135.44344       0.95699025      0.021032931
       137.63411       0.95581748      0.021836090
       139.86020       0.95459580      0.022667775
       142.12233       0.95333955      0.023530649
       144.42114       0.95203830      0.024426851
       146.75697       0.95070395      0.025364998
       149.13066       0.94934649      0.026328455
       151.54275       0.94793844      0.027321412
       153.99379       0.94650230      0.028344036
       156.48452       0.94500479      0.029382802
       159.01553       0.94345475      0.030469297
       161.58742       0.94185834      0.031579762
       164.20102       0.94021393      0.032716831
       166.85698       0.93848134      0.033887930
       169.55575       0.93668076      0.035114727
       172.29822       0.93483586      0.036399900
       175.08487       0.93295014      0.037679707
       177.91666       0.93093969      0.038955512
       180.79436       0.92881322      0.040270443
       183.71875       0.92653032      0.041637780
       186.69009       0.92408661      0.043064437
       189.70977       0.92149135      0.044658129
       192.77807       0.91879328      0.046327581
       195.89617       0.91592609      0.048118766
       199.06468       0.91289761      0.050073358
       202.28423       0.90976787      0.052157817
       205.55611       0.90645065      0.054408259
       208.88101       0.90303798      0.056843746
       212.25927       0.89949876      0.059362295
       215.69230       0.89561841      0.062083953
       219.18124       0.89162457      0.065185948
       222.72606       0.88764319      0.068237308
       226.32876       0.88276999      0.071546696
       229.98932       0.87783105      0.075551907
       233.70942       0.87271615      0.079989822
       237.48951       0.86737458      0.085003129
       241.33046       0.86189359      0.090702828
       245.23365       0.85658245      0.097219744
       249.20055       0.85193910       0.10387587
       253.23115       0.84657483       0.11065775
       257.32697       0.84085103       0.11819131
       261.48905       0.83492188       0.12658150
       265.71850       0.82886048       0.13594829
       270.01583       0.82275304       0.14642858
       274.38339       0.81671927       0.15818169
       278.82118       0.81093404       0.17138798
       283.33105       0.80569565       0.18625724
       287.91364       0.80164044       0.20272640
       292.57025       0.79832174       0.22009970
       297.30224       0.79582437       0.23951195
       302.11103       0.79484768       0.26122890
       306.99733       0.79628434       0.28555039
       311.96343       0.80171823       0.31282139
       317.00852       0.81564243       0.34342300
       322.13575       0.83503698       0.36122652
       327.34683       0.85207671       0.37922027
       332.64091       0.87122728       0.39655600
       338.02148       0.89132230       0.41260621
       343.48854       0.91567398       0.42595968
       349.04395       0.93787666       0.43662369
       354.68965       0.96131869       0.44778681
       360.42667       0.98903111       0.45630857
       366.25600        1.0157259       0.46179914
       372.17978        1.0444042       0.46742414
       378.20024        1.0789248       0.47344720
       384.31739        1.1176612       0.46709778
       390.53233        1.1552144       0.45941243
       396.84992        1.2045808       0.44761251
       403.26770        1.2662930       0.42240933
       409.79078        1.3404618       0.35835223
       416.41925        1.2350549       0.21098491
       423.15444        1.1844546       0.20920520
       499.978       1.10800      0.433000
       599.972       1.07400      0.335000
       599.972       1.08000      0.340000
       699.969      0.908000      0.353000
       799.964       1.16900      0.753000
       899.958       1.63000      0.675000
       899.958       1.85000      0.650000
       926.960       1.64000      0.768000
       977.953       1.78000      0.650000
       1014.96       1.77500      0.540000
       1025.95       1.74200      0.517000
       1034.95       1.73200      0.473000
       1046.95       1.72500      0.395000
       1066.95       1.61500      0.344000
       1089.95       1.53300      0.600000
       1099.95       1.57000      0.785000
       1115.95       1.77500      0.830000
       1145.95       2.00000      0.631000
       1161.95       2.02700      0.490000
       1174.94       1.99600      0.390000
       1189.94       1.98300      0.290000
       1199.95       2.05000      0.100000
       1253.94       1.88800       0.00000
       1275.95       1.85500       0.00000
       1332.93       1.80300       0.00000
       1432.93       1.71100       0.00000
       1604.92       1.60700       0.00000
       1604.92       1.55470       0.00000
       1611.93       1.55090       0.00000
       1644.93       1.54380       0.00000
       1670.91       1.53850       0.00000
       1724.92       1.52890       0.00000
       1763.91       1.52270       0.00000
       1818.93       1.51520       0.00000
       1849.92       1.51024       0.00000
       1859.91       1.50930       0.00000
       1929.92       1.50150       0.00000
       1969.91       1.49755       0.00000
       1979.91       1.49643       0.00000
       1999.90       1.49547       0.00000
       2039.92       1.49190       0.00000
       2079.89       1.48907       0.00000
       2109.90       1.48705       0.00000
       2139.91       1.48480       0.00000
       2189.92       1.48167       0.00000
       2199.90       1.48110       0.00000
       2399.88       1.47120       0.00000
       2599.87       1.46391       0.00000
       2799.85       1.45836       0.00000
       2999.83       1.45402       0.00000
       3199.81       1.45056       0.00000
       3399.88       1.44775       0.00000
       3599.88       1.44548       0.00000
       3799.80       1.44349       0.00000
       3999.87       1.44185       0.00000
       4199.86       1.44045       0.00000
       4399.73       1.43924       0.00000
       4599.86       1.43820       0.00000
       4799.85       1.43728       0.00000
       4999.80       1.43647       0.00000
       5199.85       1.43575       0.00000
       5399.83       1.43512       0.00000
       5599.82       1.43454       0.00000
       5799.69       1.43403       0.00000
       5999.81       1.43356       0.00000
       6199.62       1.43313       0.00000
       6399.63       1.43275       0.00000
       6599.60       1.43239       0.00000
       6799.76       1.43206       0.00000
       6999.77       1.43176       0.00000
       7199.77       1.43148       0.00000
       7399.58       1.43121       0.00000
       7599.61       1.43097       0.00000
       7799.45       1.43074       0.00000
       7999.74       1.43052       0.00000
       8199.74       1.43032       0.00000
       8399.73       1.43013       0.00000
       8599.57       1.42995       0.00000
       8799.77       1.42977       0.00000
       8999.71       1.42961       0.00000
       9199.38       1.42945       0.00000
       9399.54       1.42930       0.00000
       9599.69       1.42915       0.00000
       9799.24       1.42901       0.00000
       9999.19       1.42888       0.00000
       11999.6       1.42771       0.00000
       13999.5       1.42672       0.00000
       15999.5       1.42579       0.00000
       17999.4       1.42484       0.00000
       20000.0       1.42385       0.00000
       21997.9       1.42280       0.00000
       23999.2       1.42168       0.00000
       25997.1       1.42049       0.00000
       27999.1       1.41921       0.00000
       29997.6       1.41785       0.00000
       31994.8       1.41639       0.00000
       33995.1       1.41484       0.00000
       35998.8       1.41320       0.00000
       37995.7       1.41147       0.00000
       39993.5       1.40963       0.00000
       41998.6       1.40770       0.00000
       43995.7       1.40567       0.00000
       46003.7       1.40354       0.00000
       47998.4       1.40130       0.00000
       49991.9       1.39895       0.00000
       52005.0       1.39650       0.00000
       53998.3       1.39394       0.00000
       55998.2       1.39127       0.00000
       57988.8       1.38849       0.00000
       60009.7       1.38559       0.00000
       61990.0       1.38258       0.00000
       64006.2       1.37945       0.00000
       65981.9       1.37620       0.00000
       68008.8       1.37282       0.00000
       70005.6       1.36932       0.00000
       71997.7       1.36569       0.00000
       73973.7       1.36193       0.00000
       76014.7       1.35804       0.00000
       77974.8       1.35401       0.00000
       79987.1       1.34983       0.00000
       81997.4       1.34552       0.00000
       83997.3       1.34106       0.00000
       85977.8       1.33645       0.00000
       87991.5       1.33169       0.00000
       89971.0       1.32677       0.00000
       91973.3       1.32168       0.00000
       93995.5       1.31643       0.00000
       95959.8       1.31101       0.00000
       98007.9       1.30541       0.00000
       99983.9       1.30600    0.00290000
       105246.       1.28900    0.00350000
       111093.       1.26900    0.00400000
       117628.       1.24700    0.00500000
       124980.       1.21800    0.00700000
       133312.       1.18100    0.00900000
       142834.       1.13300     0.0120000
       153821.       1.06700     0.0170000
       166640.      0.971000     0.0270000
       173885.      0.906000     0.0350000
       181789.      0.821000     0.0470000
       190445.      0.707000     0.0680000
       199968.      0.539000      0.115000
       210492.      0.291000      0.280000
       222186.      0.182000      0.609000
       235256.      0.174000      0.902000
       249960.      0.196000       1.18700
       266624.      0.241000       1.48800
       285668.      0.298000       1.81800
       307643.      0.317000       2.23500
       333280.      0.276000       3.01100
       344389.      0.280000       3.56500
       357291.      0.346000       4.43000
       370090.      0.639000       6.07100
       385031.       3.90900       11.1460
       387437.       8.09300       12.1370
       388652.       10.8760       10.7500
       391104.       12.3420       8.01000
       393587.       11.4630       3.83100
       397372.       9.86400       2.11500
       399936.       8.67300       1.35200
       416040.       5.92700      0.389000
       435018.       4.86700      0.206000
       454139.       4.28300      0.136000
       476846.       3.90700      0.100000
       499919.       3.64100     0.0790000
       555964.       3.28900     0.0530000
       626162.       3.06600     0.0390000
       712529.       2.91400     0.0290000
       832081.       2.80500     0.0220000
       999839.       2.72600     0.0170000
       999839.       2.72900       0.00000
   1.99968e+06       2.61000     0.0340000
   2.93791e+06       2.57000       0.00000
   3.13873e+06       2.55000       0.00000
   3.39671e+06       2.55000       0.00000
   3.61458e+06       2.49000       0.00000
   3.94841e+06       2.47000       0.00000
   4.52482e+06       2.55000       0.00000
   5.79346e+06       2.54000       0.00000
