;  Optical constants for Cr
;  
;  Concatenation of:
;  
;  Cr_llnl_cxro + Cr_palik
;   
;    Lambda (A)            n            k
;-----------------------------------------
      0.12398425       0.99999986    1.0844621e-10
      0.12460729       0.99999986    1.1069951e-10
      0.12523662       0.99999986    1.1301110e-10
      0.12651454       0.99999986    1.1781728e-10
      0.12848109       0.99999985    1.2551335e-10
      0.13050974       0.99999985    1.3384568e-10
      0.13189814       0.99999984    1.3978374e-10
      0.13331640       0.99999984    1.4605397e-10
      0.13550191       0.99999984    1.5612942e-10
      0.13776028       0.99999983    1.6708418e-10
      0.13930815       0.99999983    1.7491371e-10
      0.14089119       0.99999982    1.8320423e-10
      0.14333439       0.99999982    1.9657894e-10
      0.14586382       0.99999981    2.1119057e-10
      0.14760030       0.99999980    2.2168670e-10
      0.14937861       0.99999980    2.3283900e-10
      0.15064915       0.99999980    2.4106336e-10
      0.15212791       0.99999979    2.5091030e-10
      0.15344585       0.99999979    2.5993953e-10
      0.15498031       0.99999978    2.7075896e-10
      0.15634836       0.99999978    2.8067358e-10
      0.15774078       0.99999978    2.9104423e-10
      0.15915822       0.99999977    3.0189554e-10
      0.16078881       0.99999977    3.1475372e-10
      0.16313717       0.99999976    3.3399379e-10
      0.16421755       0.99999976    3.4313848e-10
      0.16540055       0.99999975    3.5336652e-10
      0.16709468       0.99999975    3.6841333e-10
      0.16868605       0.99999974    3.8298374e-10
      0.17030804       0.99999974    3.9827798e-10
      0.17220035       0.99999973    4.1669940e-10
      0.17462570       0.99999973    4.4124350e-10
      0.17712036       0.99999972    4.6761310e-10
      0.17968732       0.99999971    4.9592749e-10
      0.18232978       0.99999970    5.2640735e-10
      0.18395289       0.99999970    5.4581893e-10
      0.18552185       0.99999969    5.6509111e-10
      0.18813998       0.99999968    5.9838931e-10
      0.19074500       0.99999967    6.3297121e-10
      0.19372539       0.99999966    6.7429919e-10
      0.19680040       0.99999965    7.1904069e-10
      0.19901164       0.99999964    7.5257309e-10
      0.20160041       0.99999963    7.9331654e-10
      0.20392146       0.99999963    8.3124129e-10
      0.20664042       0.99999962    8.7739152e-10
      0.20733152       0.99999961    8.8940091e-10
      0.20823690       0.99999961    9.0532225e-10
      0.21193889       0.99999960    9.7266747e-10
      0.21376595       0.99999959    1.0072655e-09
      0.21551234       0.99999958    1.0411951e-09
      0.21828213       0.99999957    1.0967676e-09
      0.22140045       0.99999956    1.1619776e-09
      0.22542591       0.99999954    1.2504360e-09
      0.22749404       0.99999953    1.2977301e-09
      0.22960046       0.99999953    1.3472752e-09
      0.23174626       0.99999952    1.3991996e-09
      0.23393255       0.99999951    1.4536406e-09
      0.23616048       0.99999950    1.5107458e-09
      0.23843125       0.99999949    1.5706756e-09
      0.24074612       0.99999948    1.6335956e-09
      0.24310637       0.99999947    1.6996854e-09
      0.24551337       0.99999946    1.7691425e-09
      0.24796850       0.99999945    1.8421716e-09
      0.25047323       0.99999944    1.9187576e-09
      0.25302908       0.99999942    1.9993541e-09
      0.25563763       0.99999941    2.0842153e-09
      0.25830052       0.99999940    2.1736140e-09
      0.26101947       0.99999939    2.2678429e-09
      0.26379628       0.99999937    2.3672218e-09
      0.26663280       0.99999936    2.4720909e-09
      0.26953098       0.99999935    2.5828132e-09
      0.27369592       0.99999933    2.7484213e-09
      0.27861629       0.99999930    2.9540169e-09
      0.28306906       0.99999928    3.1497181e-09
      0.28833547       0.99999925    3.3936352e-09
      0.29310697       0.99999923    3.6262629e-09
      0.29875723       0.99999920    3.9170108e-09
      0.30166484       0.99999918    4.0732875e-09
      0.30388297       0.99999917    4.1956346e-09
      0.30689171       0.99999915    4.3659768e-09
      0.30996062       0.99999913    4.5450580e-09
      0.31388418       0.99999911    4.7801815e-09
      0.31790833       0.99999909    5.0307454e-09
      0.32203701       0.99999907    5.2979167e-09
      0.32627434       0.99999904    5.5830733e-09
      0.33062467       0.99999901    5.8864385e-09
      0.33509257       0.99999899    6.2106977e-09
      0.33968288       0.99999896    6.5575837e-09
      0.34411393       0.99999893    6.9060166e-09
      0.34729482       0.99999891    7.1646264e-09
      0.35123017       0.99999889    7.4944474e-09
      0.35525573       0.99999886    7.8433512e-09
      0.35937464       0.99999883    8.2122136e-09
      0.36359018       0.99999881    8.6030000e-09
      0.36681731       0.99999879    8.9114155e-09
      0.37121033       0.99999876    9.3445671e-09
      0.37570985       0.99999873    9.8043046e-09
      0.38031979       0.99999869    1.0291124e-08
      0.38385217       0.99999867    1.0676239e-08
      0.38866536       0.99999864    1.1218213e-08
      0.39360079       0.99999860    1.1795049e-08
      0.39738542       0.99999857    1.2252203e-08
      0.40254627       0.99999854    1.2896810e-08
      0.40784293       0.99999850    1.3584386e-08
      0.41328083       0.99999846    1.3861742e-08
      0.41996528       0.99999841    1.4771676e-08
      0.42675785       0.99999835    1.5740926e-08
      0.43365996       0.99999830    1.6773057e-08
      0.44067464       0.99999824    1.7872396e-08
      0.44780188       0.99999819    1.9043145e-08
      0.45504485       0.99999813    2.0289788e-08
      0.46240522       0.99999807    2.1617421e-08
      0.46988471       0.99999800    2.3031044e-08
      0.47748323       0.99999794    2.4536100e-08
      0.48520618       0.99999787    2.6138752e-08
      0.49305362       0.99999780    2.7845061e-08
      0.50102946       0.99999773    2.9661784e-08
      0.50913375       0.99999765    3.1595818e-08
      0.51736847       0.99999758    3.3654694e-08
      0.52573570       0.99999750    3.5846198e-08
      0.53423986       0.99999741    3.8179325e-08
      0.54288101       0.99999733    4.0662569e-08
      0.55166142       0.99999724    4.3305558e-08
      0.56058349       0.99999715    4.6118397e-08
      0.56964967       0.99999706    4.9112041e-08
      0.57886523       0.99999696    5.2298488e-08
      0.58822755       0.99999686    5.5688758e-08
      0.59774203       0.99999676    5.9296777e-08
      0.60740863       0.99999665    6.3135298e-08
      0.61723320       0.99999654    6.7219858e-08
      0.62721577       0.99999643    7.1565404e-08
      0.63736268       0.99999631    7.6189340e-08
      0.64767070       0.99999619    8.1107505e-08
      0.65814639       0.99999606    8.6339512e-08
      0.66878971       0.99999593    9.1904448e-08
      0.67960781       0.99999580    9.7824323e-08
      0.69060079       0.99999566    1.0412047e-07
      0.70176851       0.99999552    1.1081564e-07
      0.71312284       0.99999537    1.1793776e-07
      0.72465574       0.99999522    1.2550951e-07
      0.73637533       0.99999507    1.3356061e-07
      0.74828597       0.99999490    1.4212178e-07
      0.76038766       0.99999474    1.5122297e-07
      0.77268974       0.99999456    1.6090069e-07
      0.78518752       0.99999439    1.7118712e-07
      0.79788566       0.99999420    1.8212034e-07
      0.81078912       0.99999401    1.9374112e-07
      0.82390321       0.99999382    2.0609257e-07
      0.83722795       0.99999361    2.1921841e-07
      0.85077472       0.99999340    2.3317009e-07
      0.86453191       0.99999319    2.4798994e-07
      0.87851717       0.99999297    2.6373913e-07
      0.89272445       0.99999274    2.8046854e-07
      0.90716643       0.99999250    2.9824347e-07
      0.92183655       0.99999225    3.1712076e-07
      0.93674824       0.99999200    3.3717431e-07
      0.95189443       0.99999174    3.5846631e-07
      0.96729692       0.99999147    3.8108756e-07
      0.98294103       0.99999119    4.0510050e-07
      0.99884192       0.99999091    4.3059834e-07
       1.0149914       0.99999061    4.5765976e-07
       1.0314143       0.99999031    4.8640142e-07
       1.0480937       0.99998999    5.1689608e-07
       1.0650470       0.99998967    5.4926933e-07
       1.0822742       0.99998933    5.8362020e-07
       1.0997751       0.99998899    6.2006507e-07
       1.1175592       0.99998863    6.5872847e-07
       1.1356365       0.99998827    6.9975759e-07
       1.1540074       0.99998789    7.4327672e-07
       1.1726719       0.99998750    7.8942523e-07
       1.1916406       0.99998710    8.3837005e-07
       1.2109138       0.99998668    8.9026720e-07
       1.2305030       0.99998626    9.4528701e-07
       1.2504021       0.99998582    1.0036100e-06
       1.2706260       0.99998537    1.0654666e-06
       1.2911771       0.99998490    1.1309639e-06
       1.3120610       0.99998442    1.2003343e-06
       1.3332830       0.99998393    1.2738846e-06
       1.3548474       0.99998342    1.3518185e-06
       1.3767614       0.99998290    1.4343189e-06
       1.3990297       0.99998237    1.5216987e-06
       1.4216568       0.99998182    1.6141711e-06
       1.4446523       0.99998125    1.7121080e-06
       1.4680180       0.99998067    1.8157833e-06
       1.4917624       0.99998008    1.9254002e-06
       1.5158889       0.99997947    2.0414160e-06
       1.5404086       0.99997884    2.1641125e-06
       1.5653233       0.99997821    2.2938913e-06
       1.5906408       0.99997755    2.4311191e-06
       1.6163693       0.99997688    2.5762297e-06
       1.6425127       0.99997620    2.7295069e-06
       1.6690775       0.99997551    2.8915569e-06
       1.6960747       0.99997481    3.0626600e-06
       1.7235068       0.99997409    3.2433402e-06
       1.7513829       0.99997337    3.4341550e-06
       1.7797106       0.99997265    3.6356501e-06
       1.8084974       0.99997192    3.8482165e-06
       1.8377457       0.99997120    4.0723539e-06
       1.8674717       0.99997049    4.3088770e-06
       1.8976755       0.99996981    4.5582318e-06
       1.9283713       0.99996918    4.8210509e-06
       1.9595592       0.99996863    5.0979358e-06
       1.9912542       0.99996822    5.3895461e-06
       2.0234629       0.99996815    5.6965971e-06
       2.0561883       0.99996930    6.0198946e-06
       2.0700958       0.99997930    6.1558644e-06
       2.0701650       0.99997930    7.5075662e-07
       2.0894473       0.99996793    7.7403223e-07
       2.1232398       0.99996520    8.2102466e-07
       2.1575837       0.99996325    8.7093111e-07
       2.1924790       0.99996151    9.2393326e-07
       2.2279410       0.99995985    9.8024754e-07
       2.2639777       0.99995821    1.0400524e-06
       2.3005973       0.99995658    1.1035803e-06
       2.3378081       0.99995492    1.1710560e-06
       2.3756186       0.99995324    1.2427274e-06
       2.4140424       0.99995152    1.3188822e-06
       2.4530886       0.99994976    1.3997411e-06
       2.4927620       0.99994795    1.4856788e-06
       2.5330824       0.99994610    1.5769558e-06
       2.5740550       0.99994419    1.6739763e-06
       2.6156849       0.99994223    1.7769989e-06
       2.6579939       0.99994021    1.8864689e-06
       2.7009877       0.99993813    2.0027667e-06
       2.7446721       0.99993598    2.1261769e-06
       2.7890648       0.99993377    2.2574345e-06
       2.8341719       0.99993149    2.3969109e-06
       2.8800192       0.99992913    2.5450621e-06
       2.9266003       0.99992670    2.7023789e-06
       2.9739352       0.99992419    2.8694958e-06
       3.0220307       0.99992160    3.0470597e-06
       3.0709086       0.99991892    3.2357572e-06
       3.1205844       0.99991616    3.4361592e-06
       3.1710581       0.99991331    3.6491790e-06
       3.2223454       0.99991036    3.8753627e-06
       3.2744626       0.99990732    4.1157500e-06
       3.3274268       0.99990417    4.3708641e-06
       3.3812472       0.99990092    4.6421718e-06
       3.4359325       0.99989757    4.9301744e-06
       3.4915109       0.99989410    5.2361978e-06
       3.5479825       0.99989052    5.5611564e-06
       3.6053672       0.99988682    5.9064541e-06
       3.6636748       0.99988300    6.2732092e-06
       3.7229377       0.99987905    6.6627770e-06
       3.7831564       0.99987497    7.0764238e-06
       3.8443417       0.99987075    7.5157932e-06
       3.9065168       0.99986639    7.9823992e-06
       3.9697063       0.99986189    8.4780224e-06
       4.0339103       0.99985724    9.0042639e-06
       4.0991543       0.99985244    9.5631694e-06
       4.1654656       0.99984747    1.0156601e-05
       4.2328301       0.99984234    1.0786578e-05
       4.3012899       0.99983704    1.1455655e-05
       4.3708599       0.99983156    1.2166203e-05
       4.4415557       0.99982590    1.2920429e-05
       4.5133926       0.99982006    1.3721178e-05
       4.5864037       0.99981402    1.4571344e-05
       4.6605890       0.99980778    1.5473777e-05
       4.7359651       0.99980133    1.6431420e-05
       4.8125674       0.99979467    1.7448107e-05
       4.8903959       0.99978779    1.8526946e-05
       4.9695078       0.99978069    1.9672191e-05
       5.0498841       0.99977335    2.0887563e-05
       5.1315648       0.99976577    2.2176976e-05
       5.2145492       0.99975794    2.3545198e-05
       5.2989025       0.99974985    2.4996853e-05
       5.3846029       0.99974150    2.6537281e-05
       5.4716958       0.99973288    2.8170913e-05
       5.5602058       0.99972398    2.9904003e-05
       5.6501326       0.99971478    3.1742209e-05
       5.7415267       0.99970529    3.3693057e-05
       5.8343882       0.99969550    3.5759023e-05
       5.9287432       0.99968539    3.7951395e-05
       6.0246483       0.99967495    4.0276457e-05
       6.1220744       0.99966419    4.2739716e-05
       6.2211108       0.99965308    4.5319846e-05
       6.3217276       0.99964160    4.8077778e-05
       6.4239878       0.99962975    5.1001899e-05
       6.5278919       0.99961752    5.4103368e-05
       6.6334728       0.99960492    5.7395268e-05
       6.7407656       0.99959191    6.0886714e-05
       6.8497693       0.99957851    6.4589468e-05
       6.9605584       0.99956470    6.8517037e-05
       7.0731335       0.99955047    7.2673489e-05
       7.1875344       0.99953582    7.7067866e-05
       7.3038032       0.99952072    8.1681328e-05
       7.4219400       0.99950513    8.6570094e-05
       7.5419881       0.99948906    9.1751053e-05
       7.6639458       0.99947251    9.7242500e-05
       7.7879065       0.99945546    0.00010306425
       7.9138715       0.99943791    0.00010923464
       8.0418913       0.99941986    0.00011577431
       8.1719659       0.99940131    0.00012270403
       8.3041479       0.99938229    0.00013002872
       8.4384358       0.99936275    0.00013764077
       8.5749435       0.99934260    0.00014566263
       8.7136125       0.99932183    0.00015412442
       8.8545632       0.99930044    0.00016307635
       8.9977974       0.99927844    0.00017255133
       9.1433138       0.99925582    0.00018257641
       9.2911768       0.99923259    0.00019318128
       9.4414555       0.99920872    0.00020440132
       9.5941507       0.99918423    0.00021627235
       9.7493355       0.99915912    0.00022883872
       9.9070893       0.99913340    0.00024206804
       10.067334       0.99910703    0.00025600025
       10.230146       0.99907997    0.00027068063
       10.395607       0.99905220    0.00028620472
       10.563718       0.99902377    0.00030261799
       10.734567       0.99899466    0.00031997251
       10.908249       0.99896487    0.00033832561
       11.084670       0.99893444    0.00035772445
       11.263923       0.99890337    0.00037823741
       11.446109       0.99887167    0.00039992960
       11.631229       0.99883937    0.00042286462
       11.819393       0.99880650    0.00044711575
       12.010603       0.99877312    0.00047258868
       12.204856       0.99873890    0.00049934384
       12.402208       0.99870365    0.00052819585
       12.602805       0.99866835    0.00055955479
       12.806650       0.99863367    0.00059277417
       13.013782       0.99859940    0.00062749256
       13.224267       0.99856493    0.00066287020
       13.438163       0.99852978    0.00070024093
       13.655510       0.99849394    0.00073971986
       13.876385       0.99845761    0.00078224708
       14.100833       0.99842228    0.00082937860
       14.328900       0.99838918    0.00087935750
       14.560653       0.99835854    0.00093233981
       14.796157       0.99833218    0.00098852242
       15.035483       0.99831092     0.0010410141
       15.278668       0.99828774     0.0010935107
       15.525784       0.99826480     0.0011486663
       15.776908       0.99824369     0.0012065932
       16.032080       0.99822531     0.0012674492
       16.291381       0.99821088     0.0013313685
       16.554896       0.99820235     0.0013985221
       16.822646       0.99820480     0.0014690478
       17.094744       0.99822202     0.0015236640
       17.371237       0.99823136     0.0015655306
       17.652220       0.99823295     0.0016085458
       17.937718       0.99823280     0.0016527443
       18.227858       0.99823068     0.0016981691
       18.522667       0.99822295     0.0017448330
       18.822253       0.99820877     0.0018159992
       19.126701       0.99821608     0.0019007756
       19.436071       0.99823394     0.0019895025
       19.750420       0.99826629     0.0021037092
       20.069873       0.99834868     0.0022369146
       20.394494       0.99848750     0.0023785461
       20.724350       0.99871205     0.0025291521
       21.059540       0.99909766     0.0026892901
       21.400172       0.99995951     0.0028595685
       21.592520        1.0033222     0.0029591662
       21.600044        1.0033292    0.00033377263
       21.746320        1.0003034    0.00034121047
       22.098019       0.99933675    0.00035956564
       22.455464       0.99889713    0.00037890972
       22.818655       0.99859412    0.00039929153
       23.187715       0.99835279    0.00042031198
       23.562773       0.99814476    0.00044126668
       23.943873       0.99795652    0.00046326451
       24.331152       0.99778108    0.00048635895
       24.724703       0.99761412    0.00051060681
       25.124575       0.99745281    0.00053546141
       25.530967       0.99729448    0.00056131594
       25.943881       0.99713780    0.00058841581
       26.363529       0.99698182    0.00061682658
       26.789912       0.99682575    0.00064649427
       27.223259       0.99666861    0.00067708400
       27.663570       0.99650955    0.00070911927
       28.111028       0.99634820    0.00074266994
       28.565693       0.99618402    0.00077780569
       29.027695       0.99601652    0.00081460291
       29.497164       0.99584446    0.00085314183
       29.974313       0.99566730    0.00089502641
       30.459069       0.99548721    0.00094205224
       30.951724       0.99530436    0.00099155163
       31.452358       0.99511783     0.0010436556
       31.961129       0.99492717     0.0010984957
       32.478035       0.99473158     0.0011562143
       33.003325       0.99453111     0.0012188808
       33.537174       0.99432765     0.0012853182
       34.079583       0.99412023     0.0013553729
       34.630828       0.99390888     0.0014292492
       35.190907       0.99369382     0.0015071485
       35.760114       0.99347736     0.0015892984
       36.338557       0.99325975     0.0016701004
       36.926230       0.99303248     0.0017506463
       37.523455       0.99279797     0.0018350792
       38.130463       0.99255676     0.0019235936
       38.747137       0.99230923     0.0020163630
       39.373829       0.99205549     0.0021136114
       40.010665       0.99179576     0.0022155499
       40.657906       0.99152991     0.0023209367
       41.315413       0.99125712     0.0024312130
       41.983729       0.99097779     0.0025467551
       42.662715       0.99069245     0.0026677677
       43.352804       0.99040346     0.0027945492
       44.053998       0.99011170     0.0029220670
       44.766606       0.98980840     0.0030482101
       45.490627       0.98949433     0.0031797667
       46.226385       0.98917061     0.0033170252
       46.974051       0.98883768     0.0034601937
       47.733800       0.98849559     0.0036095543
       48.505812       0.98814447     0.0037653508
       49.290465       0.98778470     0.0039278035
       50.087563       0.98741579     0.0040950810
       50.897699       0.98703602     0.0042694934
       51.721092       0.98664609     0.0044513629
       52.557524       0.98624642     0.0046409280
       53.407647       0.98583672     0.0048386003
       54.271466       0.98541715     0.0050446932
       55.149211       0.98498837     0.0052595396
       56.041372       0.98455101     0.0054835815
       56.947698       0.98410815     0.0057171108
       57.868691       0.98366223     0.0059445635
       58.804899       0.98319281     0.0061752001
       59.755765       0.98270683     0.0064146800
       60.722419       0.98220445     0.0066635225
       61.704582       0.98168591     0.0069220008
       62.702545       0.98115047     0.0071904962
       63.716615       0.98059642     0.0074693921
       64.747453       0.98001993     0.0077591853
       65.794382       0.97941244     0.0080691818
       66.858775       0.97879326     0.0084258125
       67.939926       0.97817815     0.0087981081
       69.038928       0.97755700     0.0091869267
       70.155805       0.97692934     0.0095929715
       71.290142       0.97629718      0.010016795
       72.443557       0.97566274      0.010459564
       73.615234       0.97503712      0.010921760
       74.805571       0.97443904      0.011368195
       76.015922       0.97380551      0.011776146
       77.245385       0.97313027      0.012198600
       78.494394       0.97242896      0.012636089
       79.763927       0.97170381      0.013089389
       81.054529       0.97095540      0.013559118
       82.365143       0.97018484      0.014045420
       83.697362       0.96938936      0.014549293
       85.051209       0.96856554      0.015083158
       86.426674       0.96773248      0.015643196
       87.824958       0.96688443      0.016224277
       89.245456       0.96602195      0.016826767
       90.688774       0.96514624      0.017451545
       92.155562       0.96426120      0.018099609
       93.645815       0.96337964      0.018771507
       95.160950       0.96248678      0.019412188
       96.700269       0.96155147      0.020074591
       98.263721       0.96059169      0.020759265
       99.853623       0.95961186      0.021467824
       101.46841       0.95862035      0.022200152
       103.10969       0.95764934      0.022957663
       104.77749       0.95670912      0.023626378
       106.47177       0.95563984      0.024267950
       108.19436       0.95449925      0.024927318
       109.94436       0.95329523      0.025604430
       111.72269       0.95202464      0.026299911
       113.52933       0.95066919      0.027014082
       115.36531       0.94920557      0.027758714
       117.23170       0.94768495      0.028664045
       119.12742       0.94616134      0.029598524
       121.05473       0.94459644      0.030563935
       123.01245       0.94297781      0.031560390
       125.00202       0.94127439      0.032589483
       127.02380       0.93944987      0.033659214
       129.07833       0.93756939      0.034974909
       131.16612       0.93572365      0.036341929
       133.28759       0.93386407      0.037762390
       135.44344       0.93197728      0.039238464
       137.63411       0.93005871      0.040772108
       139.86020       0.92810551      0.042357384
       142.12233       0.92609541      0.043996598
       144.42114       0.92402541      0.045699377
       146.75697       0.92188693      0.047467848
       149.13066       0.91966432      0.049304947
       151.54275       0.91728800      0.051213107
       153.99379       0.91470175      0.053409872
       156.48452       0.91224432      0.055824866
       159.01553       0.90979156      0.058348989
       161.58742       0.90730043      0.060987212
       164.20102       0.90472558      0.063744807
       166.85698       0.90194854      0.066694410
       169.55575       0.89919198      0.070223861
       172.29822       0.89663024      0.073940048
       175.08487       0.89415422      0.077852774
       177.91666       0.89166476      0.081972529
       180.79436       0.88929124      0.086739456
       183.71875       0.88733748      0.091799049
       186.69009       0.88580495      0.097153519
       189.70977       0.88490843       0.10268490
       192.77807       0.88429153       0.10781853
       195.89617       0.88377393       0.11320912
       199.06468       0.88359726       0.11886905
       202.28423       0.88404611       0.12481175
       205.55611       0.88551183       0.13097883
       208.88101       0.88748154       0.13583506
       212.25927       0.88946455       0.14087051
       215.69230       0.89227883       0.14609290
       219.18124       0.89677366       0.15067271
       222.72606       0.90077315       0.15291607
       226.32876       0.90413734       0.15519339
       229.98932       0.90765176       0.15750432
       233.70942       0.91191907       0.15984999
       237.48951       0.91728872       0.16005246
       241.33046       0.92127068       0.15929827
       245.23365       0.92506837       0.15854793
       249.20055       0.92956049       0.15780181
       253.23115       0.93498887       0.15407442
       257.32697       0.93829999       0.14931859
       261.48905       0.94170159       0.14470935
       265.71850       0.94745321       0.14024244
       270.01583       0.95121351       0.12446014
       274.38339       0.94729512       0.10975989
       278.82118       0.93945450      0.096795582
       283.33105       0.92840631      0.085362558
       287.91364       0.91328463      0.076871511
       292.57025       0.89909659      0.074341396
       297.30224       0.88592163      0.071894728
       302.11103       0.87253276      0.071301054
       306.99733       0.85995842      0.071243730
       311.96343       0.84689998      0.071419060
       317.00852       0.83391053      0.073322331
       322.13575       0.82102625      0.075472726
       327.34683       0.80815914      0.078367828
       332.64091       0.79478789      0.081602563
       338.02148       0.78164217      0.086597056
       343.48854       0.76905713      0.091896426
       349.04395       0.75665083      0.097520352
       354.68965       0.74430274       0.10348886
       360.42667       0.73195846       0.10980512
       366.25600       0.71953719       0.11647765
       372.17978       0.70700653       0.12355571
       378.20024       0.69434271       0.13106414
       384.31739       0.68149482       0.13902872
       390.53233       0.66836243       0.14760290
       396.84992       0.65523265       0.15688220
       403.26770       0.64207104       0.16674251
       409.79078       0.62883940       0.17722415
       416.41925       0.61554001       0.18836504
       423.15444       0.60211971       0.20020564
       430.486      0.770000      0.220000
       439.645      0.750000      0.230000
       449.203      0.730000      0.250000
       459.185      0.720000      0.260000
       469.621      0.710000      0.280000
       480.543      0.700000      0.310000
       490.040      0.680000      0.330000
       499.919      0.680000      0.360000
       510.206      0.670000      0.390000
       518.745      0.680000      0.430000
       529.829      0.680000      0.450000
       539.043      0.690000      0.480000
       551.022      0.700000      0.500000
       560.995      0.710000      0.520000
       568.716      0.720000      0.540000
       579.346      0.730000      0.560000
       590.381      0.740000      0.580000
       598.937      0.740000      0.600000
       610.739      0.750000      0.620000
       619.900      0.770000      0.640000
       629.340      0.780000      0.650000
       639.072      0.800000      0.670000
       649.110      0.820000      0.680000
       659.468      0.830000      0.680000
       670.162      0.840000      0.690000
       681.209      0.850000      0.700000
       688.778      0.870000      0.700000
       700.452      0.870000      0.710000
       708.457      0.880000      0.720000
       720.814      0.890000      0.720000
       729.294      0.900000      0.730000
       737.976      0.900000      0.740000
       751.394      0.910000      0.750000
       760.614      0.920000      0.760000
       770.062      0.920000      0.770000
       789.682      0.950000      0.790000
       799.871      0.960000      0.800000
       810.327      0.970000      0.800000
       832.081       1.00000      0.820000
       837.703       1.01000      0.820000
       849.178       1.03000      0.820000
       866.993       1.06000      0.820000
       891.942       1.09000      0.820000
       898.406       1.10000      0.820000
       918.370       1.12000      0.800000
       932.180       1.13000      0.800000
       946.412       1.15000      0.770000
       968.594       1.15000      0.750000
       991.840       1.15000      0.730000
       1007.97       1.14000      0.710000
       1033.17       1.13000      0.700000
       1059.66       1.10000      0.690000
       1078.09       1.09000      0.690000
       1097.17       1.07000      0.690000
       1116.94       1.05000      0.690000
       1147.96       1.03000      0.700000
       1180.76       1.01000      0.720000
       1203.69       1.00000      0.720000
       1239.80      0.980000      0.730000
       1270.29      0.950000      0.730000
       1299.58      0.920000      0.740000
       1340.32      0.860000      0.770000
       1369.94      0.830000      0.810000
       1389.91      0.810000      0.830000
       1420.16      0.780000      0.870000
       1439.95      0.760000      0.890000
       1460.31      0.740000      0.920000
       1490.14      0.720000      0.970000
       1510.11      0.710000       1.00000
       1530.62      0.690000       1.04000
       1549.75      0.680000       1.07000
       1569.37      0.680000       1.11000
       1589.49      0.670000       1.15000
       1610.13      0.670000       1.19000
       1629.17      0.660000       1.23000
       1648.67      0.670000       1.27000
       1679.95      0.690000       1.33000
       1700.69      0.700000       1.36000
       1719.56      0.710000       1.39000
       1738.85      0.720000       1.42000
       1768.62      0.740000       1.45000
       1799.42      0.760000       1.49000
       1820.56      0.750000       1.51000
       1850.45      0.780000       1.57000
       1878.48      0.800000       1.59000
       1910.32      0.820000       1.63000
       1940.22      0.850000       1.66000
       1971.07      0.880000       1.68000
       1999.68      0.890000       1.69000
       2029.13      0.920000       1.72000
       2069.78      0.940000       1.73000
       2101.36      0.960000       1.73000
       2141.28      0.970000       1.74000
       2171.28      0.970000       1.75000
       2209.98      0.950000       1.74000
       2250.09      0.940000       1.76000
       2300.19      0.930000       1.80000
       2339.25      0.900000       1.83000
       2379.65      0.870000       1.87000
       2430.98      0.860000       1.94000
       2479.60      0.850000       2.01000
       2530.20      0.860000       2.07000
       2582.92      0.860000       2.13000
       2637.87      0.860000       2.21000
       2695.22      0.880000       2.28000
       2755.11      0.890000       2.35000
       2817.73      0.900000       2.42000
       2869.91      0.910000       2.49000
       2937.91      0.940000       2.58000
       3001.94      0.980000       2.67000
       3076.43       1.02000       2.76000
       3162.76       1.06000       2.85000
       3237.08       1.12000       2.95000
       3332.80       1.18000       3.04000
       3415.43       1.26000       3.12000
       3512.18       1.33000       3.18000
       3625.15       1.39000       3.24000
       3723.12       1.43000       3.31000
       3850.31       1.44000       3.40000
       3961.02       1.48000       3.54000
       4091.75       1.54000       3.71000
       4245.89       1.65000       3.89000
       4380.92       1.80000       4.06000
       4558.09       1.99000       4.22000
       4714.07       2.22000       4.36000
       4900.40       2.49000       4.44000
       5123.14       2.75000       4.46000
       5321.03       2.98000       4.45000
       5584.68       3.18000       4.41000
       5820.66       3.34000       4.38000
       6107.39       3.48000       4.36000
       7004.52       3.84000       4.37000
       8156.58       4.23000       4.34000
       8265.33       4.27000       4.33000
       8491.78       4.31000       4.32000
       8609.72       4.33000       4.32000
       8855.71       4.38000       4.31000
       9116.18       4.42000       4.30000
       9392.42       4.47000       4.29000
       9685.94       4.49000       4.28000
       9998.39       4.50000       4.28000
       10331.7       4.52000       4.29000
       10687.9       4.53000       4.30000
       11069.6       4.53000       4.31000
       11479.6       4.53000       4.34000
       11921.2       4.51000       4.36000
       12398.0       4.47000       4.43000
       12914.6       4.47000       4.50000
       13476.1       4.45000       4.56000
       13775.6       4.43000       4.60000
       14416.3       4.35000       4.66000
       15119.5       4.24000       4.81000
       15894.9       4.13000       5.03000
       16754.1       4.06000       5.30000
       17711.4       4.01000       5.59000
       18784.8       3.96000       5.95000
       19996.8       4.01000       6.31000
       21375.9       4.01000       6.65000
       22959.3       3.92000       7.06000
       24796.0       3.83000       7.58000
       26952.2       3.72000       8.20000
       29519.0       3.47000       8.97000
       32626.3       3.09000       10.2000
       36464.7       2.89000       12.0000
       41326.7       3.15000       14.3000
       47684.6       3.91000       17.1000
       56354.5       5.30000       20.6000
       68877.8       8.73000       25.4000
       88557.1       15.3000       26.4000
       123980.       11.8000       29.8000
       137756.       11.8000       33.9000
       154975.       13.6000       42.2000
       206633.       21.2000       42.0000
       309950.       14.9000       65.2000
