;  Optical constants for Cr3C2
; 
;   taken from:
;
;   D. L. Windt, 'XUV Optical Constants of single-crystal GaAs and
;   sputtered C, Si, Cr3C2, Mo, and W', App. Opt., 30, 15, 1991.
;   
;    Lambda (A)            n            k
;-----------------------------------------
   13.336	.99888283	.000450972
   14.562	.99867898	.000670229
   15.287	.99858642	.000768760
   15.973	.99846852	.000820042
   16.694	.99845451	.000928237
   17.59	.99828160	.00129569
   18.292	.99826998	.00144448
   19.45	.99812758	.00130178
   20.15	.99792850	.00202654
   21.64	1.0041864	.00103428
   22.29	.99888927	.000823238
   23.62	.99835396	.000464546
   24.25	.99821186	.000528464
   24.78	.99759281	.000902692
   27.42	.99697804	.000929492
   27.77	.99701256	.000871703
   31.36	.99594504	.00129155
   36.8		.99694639	.00307074
   39.77	.99446809	.00221345
   43.6		.99494982	.00365197
   44.7		.99359363	.00193690
   47.67	.99170190	.00216201
   52.34	.98967057	.00318977
   64.38	.98374647	.00477022
   67.6		.98237842	.00540484
   72.19	.98012358	.00735943
   82.1		.97566265	.00737271
   93.4		.96805477	.0104173
  108.7		.95796007	.0179473
  114.		.95314705	.0188447
  128.7		.94613844	.0270497
  135.5		.93657422	.0287451
  171.4		.90329963	.0793258
218		.87953842	.1448
228		.89551264	.16433
237.389		.89260983	.17709
243.027		.90312392	.18545
256.314		.93173385	.20349
267.059		.93522209	.16220
283.206		.93817621	.16242
301.124		.91362762	.0849828
303.781		.89333159	.10490
305.5		.88123125	.13958
313.048		.86301810	.11474
320		.84363395	.13869
327		.84147036	.12549
331		.83570677	.13116
353		.81634617	.13536
356.795		.79279733	.16648
361.427		.79264903	.17755
379.308		.76121324	.21316
405.852		.73468935	.22698
430.177		.69593740	.31628
446.252		.68452632	.31593
456.344		.70738876	.30379
460.725		.64144605	.35254
485.086		.65957516	.46046
489.501		.69377100	.44352
533.73		.69715780	.41769
537.024		.74960637	.48777
539.086		.65969127	.57883
555.056		.69288397	.62099
584.331		.68137676	.67773
616.291		.75215048	.78273
671.391		.80940425	.79972
718.484		.77690911	.83218
735.89		.71565747	.83780
743.7		.83102071	.87157
746.976		.91404825	.91713
834.462		.81528896	.88170
878		.88420814	.88761
916.7		.87627286	.86132
919.78		.85907161	.85498
932.046		.90169382	.86040
963.93		.88048422	.85269
988.775		.85367876	.84234
989.79		.8815664	.88876
1008		.88651466	.84614
1025.766	.96791381	.71569
1031		.88266015	.85687
1039.226	.88030875	.82497
1048.218	.88269389	.81832
1066.660	.86579138	.81880
1085.699	.82733041	.79297
1134.979	.81970400	.80232
1152.129	.81361365	.77126
1167.442	.89875650	.76262
1199.550	.75001782	.77156
1215.668	.88019496	.86016
1243.170	.79468971	.73642
1302.174	.67107135	.81814
