;  Optical constants for Cu
;  
;  Concatenation of:
;
;  Cu_llnl_cxro + Cu_palik  
;   
;    Lambda (A)            n            k
;-----------------------------------------
      0.12398425       0.99999983    2.5036029e-10
      0.12460729       0.99999983    2.5550785e-10
      0.12523662       0.99999983    2.6078790e-10
      0.12651454       0.99999982    2.7176166e-10
      0.12848109       0.99999982    2.8932533e-10
      0.13050974       0.99999981    3.0832607e-10
      0.13189814       0.99999981    3.2186198e-10
      0.13331640       0.99999980    3.3614637e-10
      0.13550191       0.99999980    3.5908704e-10
      0.13776028       0.99999979    3.8401255e-10
      0.13930815       0.99999979    4.0181694e-10
      0.14089119       0.99999978    4.2066262e-10
      0.14333439       0.99999977    4.5104457e-10
      0.14586382       0.99999977    4.8421198e-10
      0.14760030       0.99999976    5.0802264e-10
      0.14937861       0.99999975    5.3331067e-10
      0.15064915       0.99999975    5.5195003e-10
      0.15212791       0.99999975    5.7425846e-10
      0.15344585       0.99999974    5.9470676e-10
      0.15498031       0.99999974    6.1920035e-10
      0.15634836       0.99999973    6.4163422e-10
      0.15774078       0.99999973    6.6509046e-10
      0.15915822       0.99999972    6.8962604e-10
      0.16078881       0.99999972    7.1868781e-10
      0.16313717       0.99999971    7.6214986e-10
      0.16421755       0.99999970    7.8279688e-10
      0.16540055       0.99999970    8.0588500e-10
      0.16709468       0.99999969    8.3983670e-10
      0.16868605       0.99999969    8.7269977e-10
      0.17030804       0.99999968    9.0718225e-10
      0.17220035       0.99999967    9.4869830e-10
      0.17462570       0.99999966    1.0039804e-09
      0.17712036       0.99999965    1.0633388e-09
      0.17968732       0.99999964    1.1270277e-09
      0.18232978       0.99999963    1.1955442e-09
      0.18395289       0.99999963    1.2391565e-09
      0.18552185       0.99999962    1.2824415e-09
      0.18813998       0.99999961    1.3571860e-09
      0.19074500       0.99999960    1.4347779e-09
      0.19372539       0.99999959    1.5274093e-09
      0.19680040       0.99999957    1.6276095e-09
      0.19901164       0.99999956    1.7026741e-09
      0.20160041       0.99999955    1.7937248e-09
      0.20392146       0.99999954    1.8783775e-09
      0.20664042       0.99999953    1.9813259e-09
      0.20733152       0.99999953    2.0079464e-09
      0.20823690       0.99999952    2.0432572e-09
      0.21193889       0.99999951    2.1924413e-09
      0.21376595       0.99999950    2.2689978e-09
      0.21551234       0.99999949    2.3440583e-09
      0.21828213       0.99999947    2.4669013e-09
      0.22140045       0.99999946    2.6109115e-09
      0.22542591       0.99999944    2.8060175e-09
      0.22749404       0.99999943    2.9101204e-09
      0.22960046       0.99999942    3.0190944e-09
      0.23174626       0.99999941    3.1332205e-09
      0.23393255       0.99999940    3.2527749e-09
      0.23616048       0.99999939    3.3781129e-09
      0.23843125       0.99999937    3.5095467e-09
      0.24074612       0.99999936    3.6474279e-09
      0.24310637       0.99999935    3.7921516e-09
      0.24551337       0.99999934    3.9441593e-09
      0.24796850       0.99999932    4.1038269e-09
      0.25047323       0.99999931    4.2709332e-09
      0.25302908       0.99999929    4.4466615e-09
      0.25563763       0.99999928    4.6315155e-09
      0.25830052       0.99999926    4.8260807e-09
      0.26101947       0.99999925    5.0310056e-09
      0.26379628       0.99999923    5.2469285e-09
      0.26663280       0.99999922    5.4745822e-09
      0.26953098       0.99999920    5.7147481e-09
      0.27369592       0.99999917    6.0735795e-09
      0.27861629       0.99999914    6.5182902e-09
      0.28306906       0.99999912    6.9409802e-09
      0.28833547       0.99999908    7.4670046e-09
      0.29310697       0.99999905    7.9678238e-09
      0.29875723       0.99999901    8.5928703e-09
      0.30388297       0.99999898    9.1909448e-09
      0.30996062       0.99999894    9.9397424e-09
      0.31388418       0.99999891    1.0444057e-08
      0.31790833       0.99999888    1.0980864e-08
      0.32203701       0.99999885    1.1552750e-08
      0.32627434       0.99999882    1.2162470e-08
      0.33062467       0.99999879    1.2811633e-08
      0.33509257       0.99999876    1.3504833e-08
      0.33968288       0.99999872    1.4245815e-08
      0.34411393       0.99999869    1.4989413e-08
      0.34729482       0.99999867    1.5540761e-08
      0.35123017       0.99999863    1.6243618e-08
      0.35525573       0.99999860    1.6986280e-08
      0.35937464       0.99999857    1.7770184e-08
      0.36359018       0.99999854    1.8600091e-08
      0.36681731       0.99999851    1.9254599e-08
      0.37121033       0.99999847    2.0172986e-08
      0.37570985       0.99999844    2.1146995e-08
      0.38031979       0.99999840    2.2175747e-08
      0.38385217       0.99999837    2.2988883e-08
      0.38866536       0.99999833    2.4132252e-08
      0.39360079       0.99999828    2.5348027e-08
      0.39738542       0.99999825    2.6310669e-08
      0.40254627       0.99999820    2.7666870e-08
      0.40784293       0.99999816    2.9112101e-08
      0.41328083       0.99999811    3.0607218e-08
      0.41996528       0.99999804    3.2584291e-08
      0.42675785       0.99999798    3.4687722e-08
      0.43365996       0.99999791    3.6925285e-08
      0.44067464       0.99999784    3.9305626e-08
      0.44780188       0.99999777    4.1837509e-08
      0.45504485       0.99999770    4.4530643e-08
      0.46240522       0.99999763    4.7395024e-08
      0.46988471       0.99999755    5.0441401e-08
      0.47748323       0.99999747    5.3680743e-08
      0.48520618       0.99999738    5.7125715e-08
      0.49305362       0.99999730    6.0788864e-08
      0.50102946       0.99999721    6.4684125e-08
      0.50913375       0.99999712    6.8825447e-08
      0.51736847       0.99999702    7.3228074e-08
      0.52573570       0.99999693    7.7908148e-08
      0.53423986       0.99999683    8.2883582e-08
      0.54288101       0.99999672    8.8171880e-08
      0.55166142       0.99999662    9.3792456e-08
      0.56058349       0.99999650    9.9765639e-08
      0.56964967       0.99999639    1.0611320e-07
      0.57886523       0.99999627    1.1285952e-07
      0.58822755       0.99999615    1.2002665e-07
      0.59774203       0.99999602    1.2764201e-07
      0.60740863       0.99999589    1.3573136e-07
      0.61723320       0.99999576    1.4432535e-07
      0.62721577       0.99999562    1.5345376e-07
      0.63736268       0.99999548    1.6314948e-07
      0.64767070       0.99999533    1.7344637e-07
      0.65814639       0.99999518    1.8438141e-07
      0.66878971       0.99999502    1.9598995e-07
      0.67960781       0.99999486    2.0831690e-07
      0.69060079       0.99999469    2.2140570e-07
      0.70176851       0.99999452    2.3529634e-07
      0.71312284       0.99999434    2.5004474e-07
      0.72465574       0.99999416    2.6569231e-07
      0.73637533       0.99999397    2.8229807e-07
      0.74828597       0.99999378    2.9991986e-07
      0.76038766       0.99999357    3.1861518e-07
      0.77268974       0.99999337    3.3845253e-07
      0.78518752       0.99999315    3.5948970e-07
      0.79788566       0.99999293    3.8180275e-07
      0.81078912       0.99999271    4.0546276e-07
      0.82390321       0.99999247    4.3055258e-07
      0.83722795       0.99999223    4.5715157e-07
      0.85077472       0.99999198    4.8535586e-07
      0.86453191       0.99999172    5.1524055e-07
      0.87851717       0.99999146    5.4691894e-07
      0.89272445       0.99999119    5.8047872e-07
      0.90716643       0.99999091    6.1604215e-07
      0.92183655       0.99999062    6.5370606e-07
      0.93674824       0.99999033    6.9360329e-07
      0.95189443       0.99999002    7.3584374e-07
      0.96729692       0.99998971    7.8058411e-07
      0.98294103       0.99998939    8.2793482e-07
      0.99884192       0.99998906    8.7806072e-07
       1.0149914       0.99998872    9.3108709e-07
       1.0314143       0.99998837    9.8721739e-07
       1.0480937       0.99998802    1.0465713e-06
       1.0650470       0.99998765    1.1093565e-06
       1.0822742       0.99998728    1.1757404e-06
       1.0997751       0.99998690    1.2459142e-06
       1.1175592       0.99998651    1.3200817e-06
       1.1356365       0.99998611    1.3984692e-06
       1.1540074       0.99998570    1.4812805e-06
       1.1726719       0.99998530    1.5687415e-06
       1.1916406       0.99998488    1.6610973e-06
       1.2109138       0.99998446    1.7585851e-06
       1.2305030       0.99998405    1.8614870e-06
       1.2504021       0.99998364    1.9700325e-06
       1.2706260       0.99998323    2.0844211e-06
       1.2911771       0.99998285    2.2051365e-06
       1.3120610       0.99998251    2.3323903e-06
       1.3332830       0.99998224    2.4665031e-06
       1.3548474       0.99998216    2.6077280e-06
       1.3767614       0.99998307    2.7565788e-06
       1.3808247       0.99998730    2.7848212e-06
       1.3808555       0.99998730    3.5817487e-07
       1.3990297       0.99998142    3.7681409e-07
       1.4216568       0.99998021    4.0101401e-07
       1.4446523       0.99997924    4.2672289e-07
       1.4680180       0.99997833    4.5402083e-07
       1.4917624       0.99997745    4.8301111e-07
       1.5158889       0.99997658    5.1378521e-07
       1.5404086       0.99997569    5.4647212e-07
       1.5653233       0.99997479    5.8117256e-07
       1.5906408       0.99997388    6.1801524e-07
       1.6163693       0.99997294    6.5712720e-07
       1.6425127       0.99997198    6.9865042e-07
       1.6690775       0.99997099    7.4273289e-07
       1.6960747       0.99996997    7.8953229e-07
       1.7235068       0.99996893    8.3921166e-07
       1.7513829       0.99996785    8.9194423e-07
       1.7797106       0.99996674    9.4792183e-07
       1.8084974       0.99996560    1.0073430e-06
       1.8377457       0.99996442    1.0703887e-06
       1.8674717       0.99996320    1.1373252e-06
       1.8976755       0.99996195    1.2083645e-06
       1.9283713       0.99996065    1.2837835e-06
       1.9595592       0.99995931    1.3637881e-06
       1.9912542       0.99995793    1.4487240e-06
       2.0234629       0.99995651    1.5389054e-06
       2.0561883       0.99995504    1.6344726e-06
       2.0894473       0.99995352    1.7359340e-06
       2.1232398       0.99995195    1.8437366e-06
       2.1575837       0.99995033    1.9579502e-06
       2.1924790       0.99994865    2.0793212e-06
       2.2279410       0.99994692    2.2079226e-06
       2.2639777       0.99994514    2.3445483e-06
       2.3005973       0.99994329    2.4894825e-06
       2.3378081       0.99994139    2.6431347e-06
       2.3756186       0.99993942    2.8063593e-06
       2.4140424       0.99993738    2.9794106e-06
       2.4530886       0.99993528    3.1630251e-06
       2.4927620       0.99993311    3.3578374e-06
       2.5330824       0.99993087    3.5645602e-06
       2.5740550       0.99992855    3.7838575e-06
       2.6156849       0.99992616    4.0165551e-06
       2.6579939       0.99992368    4.2633692e-06
       2.7009877       0.99992113    4.5251089e-06
       2.7446721       0.99991849    4.8030240e-06
       2.7890648       0.99991576    5.0976498e-06
       2.8341719       0.99991295    5.4100844e-06
       2.8800192       0.99991004    5.7416673e-06
       2.9266003       0.99990703    6.0933124e-06
       2.9739352       0.99990392    6.4663806e-06
       3.0220307       0.99990071    6.8620208e-06
       3.0709086       0.99989740    7.2816845e-06
       3.1205844       0.99989397    7.7268100e-06
       3.1710581       0.99989044    8.1987611e-06
       3.2223454       0.99988678    8.6994405e-06
       3.2744626       0.99988301    9.2304383e-06
       3.3274268       0.99987911    9.7933881e-06
       3.3812472       0.99987508    1.0390602e-05
       3.4359325       0.99987092    1.1023746e-05
       3.4915109       0.99986662    1.1695230e-05
       3.5479825       0.99986218    1.2407242e-05
       3.6053672       0.99985760    1.3162071e-05
       3.6636748       0.99985287    1.3962411e-05
       3.7229377       0.99984798    1.4811030e-05
       3.7831564       0.99984293    1.5710870e-05
       3.8443417       0.99983772    1.6664564e-05
       3.9065168       0.99983234    1.7675900e-05
       3.9697063       0.99982679    1.8747800e-05
       4.0339103       0.99982105    1.9884126e-05
       4.0991543       0.99981513    2.1088462e-05
       4.1654656       0.99980902    2.2365195e-05
       4.2328301       0.99980272    2.3718178e-05
       4.3012899       0.99979621    2.5152234e-05
       4.3708599       0.99978950    2.6671868e-05
       4.4415557       0.99978257    2.8282341e-05
       4.5133926       0.99977542    2.9988762e-05
       4.5864037       0.99976804    3.1797139e-05
       4.6605890       0.99976044    3.3711733e-05
       4.7359651       0.99975260    3.5742670e-05
       4.8125674       0.99974451    3.7893591e-05
       4.8903959       0.99973617    4.0169691e-05
       4.9695078       0.99972757    4.2582537e-05
       5.0498841       0.99971872    4.5139542e-05
       5.1315648       0.99970959    4.7845562e-05
       5.2145492       0.99970018    5.0713436e-05
       5.2989025       0.99969050    5.3747593e-05
       5.3846029       0.99968052    5.6963601e-05
       5.4716958       0.99967025    6.0365931e-05
       5.5602058       0.99965967    6.3967282e-05
       5.6501326       0.99964879    6.7781326e-05
       5.7415267       0.99963760    7.1820775e-05
       5.8343882       0.99962609    7.6091968e-05
       5.9287432       0.99961425    8.0611490e-05
       6.0246483       0.99960209    8.5395607e-05
       6.1220744       0.99958962    9.0457992e-05
       6.2211108       0.99957680    9.5742003e-05
       6.3217276       0.99956358    0.00010137633
       6.4239878       0.99955001    0.00010734552
       6.5278919       0.99953610    0.00011366631
       6.6334728       0.99952183    0.00012035577
       6.7407656       0.99950721    0.00012743986
       6.8497693       0.99949224    0.00013494098
       6.9605584       0.99947693    0.00014288703
       7.0731335       0.99946130    0.00015127453
       7.1875344       0.99944536    0.00016012077
       7.3038032       0.99942906    0.00016938532
       7.4219400       0.99941236    0.00017918473
       7.5419881       0.99939531    0.00018955141
       7.6639458       0.99937794    0.00020051531
       7.7879065       0.99936025    0.00021211594
       7.9138715       0.99934226    0.00022438691
       8.0418913       0.99932400    0.00023736775
       8.1719659       0.99930551    0.00025110071
       8.3041479       0.99928682    0.00026562431
       8.4384358       0.99926798    0.00028094909
       8.5749435       0.99924901    0.00029715300
       8.7136125       0.99922998    0.00031428148
       8.8545632       0.99921095    0.00033240117
       8.9977974       0.99919203    0.00035156210
       9.1433138       0.99917336    0.00037182878
       9.2911768       0.99915507    0.00039326201
       9.4414555       0.99913738    0.00041592955
       9.5941507       0.99912066    0.00043990371
       9.7493355       0.99910571    0.00046526764
       9.9070893       0.99909326    0.00048959155
       10.067334       0.99908102    0.00051307240
       10.230146       0.99906840    0.00053578813
       10.395607       0.99905539    0.00055951528
       10.563718       0.99904272    0.00058428910
       10.734567       0.99903074    0.00061016001
       10.908249       0.99901974    0.00063718624
       11.084670       0.99901008    0.00066540636
       11.263923       0.99900206    0.00069486370
       11.446109       0.99899602    0.00072563328
       11.631229       0.99899217    0.00075776656
       11.819393       0.99898961    0.00079133112
       12.010603       0.99898840    0.00083461833
       12.204856       0.99900076    0.00088825975
       12.402208       0.99903291    0.00094532754
       12.602805       0.99908908     0.0010060780
       12.806650       0.99918464     0.0010707308
       13.013782       0.99936031     0.0011395688
       13.224267       0.99983941     0.0012128256
       13.294472        1.0012097     0.0012378842
       13.297324        1.0012115    0.00014423373
       13.438163       0.99963824    0.00015464251
       13.655510       0.99931922    0.00017219668
       13.876385       0.99914787    0.00018218728
       14.100833       0.99901814    0.00019386060
       14.328900       0.99891067    0.00020687642
       14.560653       0.99881644    0.00022046331
       14.796157       0.99872969    0.00023251727
       15.035483       0.99864614    0.00024523049
       15.278668       0.99856522    0.00025863933
       15.525784       0.99848589    0.00027278062
       15.776908       0.99840764    0.00028769603
       16.032080       0.99833003    0.00030233685
       16.291381       0.99825142    0.00031715783
       16.554896       0.99817157    0.00033270680
       16.822646       0.99809038    0.00034901734
       17.094744       0.99800748    0.00036612829
       17.371237       0.99792234    0.00038407757
       17.652220       0.99783436    0.00040424532
       17.937718       0.99774512    0.00042705664
       18.227858       0.99765488    0.00045115751
       18.522667       0.99756294    0.00047661679
       18.822253       0.99746920    0.00050351370
       19.126701       0.99737373    0.00053192794
       19.436071       0.99727652    0.00056105835
       19.750420       0.99717651    0.00059143285
       20.069873       0.99707387    0.00062345247
       20.394494       0.99696869    0.00065720593
       20.724350       0.99686100    0.00069278486
       21.059540       0.99675096    0.00073029133
       21.400172       0.99663896    0.00076913199
       21.746320       0.99652381    0.00080836376
       22.098019       0.99640467    0.00084959185
       22.455464       0.99628212    0.00089293088
       22.818655       0.99615617    0.00093847244
       23.187715       0.99602681    0.00098634194
       23.562773       0.99589406     0.0010366516
       23.943873       0.99575802     0.0010895282
       24.331152       0.99562007     0.0011451002
       24.724703       0.99547981     0.0011995889
       25.124575       0.99533203     0.0012553610
       25.530967       0.99517889     0.0013137326
       25.943881       0.99502012     0.0013748157
       26.363529       0.99485535     0.0014387420
       26.789912       0.99468142     0.0015056336
       27.223259       0.99449861     0.0015838300
       27.663570       0.99431773     0.0016686558
       28.111028       0.99413344     0.0017580278
       28.565693       0.99394578     0.0018521773
       29.027695       0.99375485     0.0019513746
       29.497164       0.99356110     0.0020558793
       29.974313       0.99336616     0.0021659953
       30.459069       0.99317201     0.0022745562
       30.951724       0.99296885     0.0023827282
       31.452358       0.99275733     0.0024960479
       31.961129       0.99253936     0.0026147616
       32.478035       0.99231516     0.0027391076
       33.003325       0.99208484     0.0028693689
       33.537174       0.99184844     0.0030058342
       34.079583       0.99160632     0.0031487861
       34.630828       0.99135864     0.0032979041
       35.190907       0.99110451     0.0034527917
       35.760114       0.99084336     0.0036149813
       36.338557       0.99057562     0.0037847839
       36.926230       0.99030141     0.0039625395
       37.523455       0.99002081     0.0041486581
       38.130463       0.98973369     0.0043435398
       38.747137       0.98944048     0.0045475440
       39.373829       0.98914128     0.0047611381
       40.010665       0.98883657     0.0049847756
       40.657906       0.98852906     0.0052189334
       41.315413       0.98821840     0.0054558011
       41.983729       0.98789482     0.0057013983
       42.662715       0.98756311     0.0059580007
       43.352804       0.98722355     0.0062262008
       44.053998       0.98687636     0.0065064529
       44.766606       0.98652174     0.0067993414
       45.490627       0.98615990     0.0071053741
       46.226385       0.98579113     0.0074251971
       46.974051       0.98541560     0.0077594045
       47.733800       0.98503365     0.0081086670
       48.505812       0.98464578     0.0084736429
       49.290465       0.98425257     0.0088550894
       50.087563       0.98385573     0.0092536246
       50.897699       0.98345888     0.0096689671
       51.721092       0.98305738      0.010088415
       52.557524       0.98264317      0.010525905
       53.407647       0.98222126      0.010982488
       54.271466       0.98179279      0.011458862
       55.149211       0.98135819      0.011955873
       56.041372       0.98091791      0.012474522
       56.947698       0.98047187      0.013015515
       57.868691       0.98001779      0.013581194
       58.804899       0.97956198      0.014186859
       59.755765       0.97911630      0.014819237
       60.722419       0.97867824      0.015480077
       61.704582       0.97825988      0.016170357
       62.702545       0.97786947      0.016872160
       63.716615       0.97747149      0.017558661
       64.747453       0.97706051      0.018273311
       65.794382       0.97664940      0.019016876
       66.858775       0.97624276      0.019790834
       67.939926       0.97584597      0.020595994
       69.038928       0.97546456      0.021434293
       70.155805       0.97510740      0.022306733
       71.290142       0.97479374      0.023214235
       72.443557       0.97456613      0.024121484
       73.615234       0.97433968      0.024908880
       74.805571       0.97404955      0.025721780
       76.015922       0.97374491      0.026561745
       77.245385       0.97343680      0.027429030
       78.494394       0.97313231      0.028324156
       79.763927       0.97283645      0.029248734
       81.054529       0.97255672      0.030203893
       82.365143       0.97230393      0.031189584
       83.697362       0.97209594      0.032208026
       85.051209       0.97199454      0.033259512
       86.426674       0.97195627      0.034090837
       87.824958       0.97178581      0.034922466
       89.245456       0.97157818      0.035774164
       90.688774       0.97135007      0.036646330
       92.155562       0.97110858      0.037539696
       93.645815       0.97085948      0.038455136
       95.160950       0.97060690      0.039393073
       96.700269       0.97035690      0.040353843
       98.263721       0.97011646      0.041337297
       99.853623       0.96990481      0.042345628
       101.46841       0.96975015      0.043378159
       103.10969       0.96961426      0.044251175
       104.77749       0.96939089      0.045132470
       106.47177       0.96912873      0.046031498
       108.19436       0.96883903      0.046948620
       109.94436       0.96852858      0.047883976
       111.72269       0.96820086      0.048838009
       113.52933       0.96786062      0.049810768
       115.36531       0.96751579      0.050802710
       117.23170       0.96718067      0.051776291
       119.12742       0.96679213      0.052742641
       121.05473       0.96636825      0.053727898
       123.01245       0.96591392      0.054730793
       125.00202       0.96542907      0.055752611
       127.02380       0.96491182      0.056793614
       129.07833       0.96435217      0.057853993
       131.16612       0.96373781      0.058948997
       133.28759       0.96310828      0.060122163
       135.44344       0.96247405      0.061318745
       137.63411       0.96181956      0.062539153
       139.86020       0.96113656      0.063783798
       142.12233       0.96041560      0.065053176
       144.42114       0.95963498      0.066347962
       146.75697       0.95874717      0.067745704
       149.13066       0.95790377      0.069297840
       151.54275       0.95710216      0.070885523
       153.99379       0.95631186      0.072509559
       156.48452       0.95552089      0.074170781
       159.01553       0.95471837      0.075870032
       161.58742       0.95389591      0.077653537
       164.20102       0.95311255      0.079499984
       166.85698       0.95235146      0.081390483
       169.55575       0.95161128      0.083325791
       172.29822       0.95089597      0.085307130
       175.08487       0.95021451      0.087335518
       177.91666       0.94960616      0.089412162
       180.79436       0.94913072      0.091503845
       183.71875       0.94863261      0.093336602
       186.69009       0.94800953      0.095205753
       189.70977       0.94732973      0.097112586
       192.77807       0.94661242      0.099057377
       195.89617       0.94586671       0.10104119
       199.06468       0.94510015       0.10306496
       202.28423       0.94432903       0.10512886
       205.55611       0.94357802       0.10723422
       208.88101       0.94280609       0.10924050
       212.25927       0.94194226       0.11127818
       215.69230       0.94101847       0.11335406
       219.18124       0.94004223       0.11546908
       222.72606       0.93901533       0.11762291
       226.32876       0.93793637       0.11981752
       229.98932       0.93679418       0.12205260
       233.70942       0.93557084       0.12436872
       237.48951       0.93434337       0.12675915
       241.33046       0.93308862       0.12919543
       245.23365       0.93179830       0.13167874
       249.20055       0.93047159       0.13421032
       253.23115       0.92911218       0.13679030
       257.32697       0.92772574       0.13941969
       261.48905       0.92637116       0.14209949
       265.71850       0.92515575       0.14464339
       270.01583       0.92363317       0.14696053
       274.38339       0.92185530       0.14931602
       278.82118       0.91986670       0.15170848
       283.33105       0.91765179       0.15413959
       287.91364       0.91517447       0.15660949
       292.57025       0.91237304       0.15911896
       297.30224       0.90899960       0.16166851
       302.11103       0.90457610       0.16476623
       306.99733       0.90050729       0.16930138
       311.96343       0.89683372       0.17396162
       317.00852       0.89320059       0.17874921
       322.13575       0.88946188       0.18366862
       327.34683       0.88544438       0.18872514
       332.64091       0.88076576       0.19391880
       338.02148       0.87433531       0.20088697
       343.48854       0.86964894       0.21026425
       349.04395       0.86615854       0.22007911
       354.68965       0.86359405       0.23035254
       360.42667       0.86197180       0.24110531
       366.25600       0.86152462       0.25236006
       372.17978       0.86303898       0.26413990
       378.20024       0.86574760       0.27334016
       384.31739       0.86825389       0.28271466
       390.53233       0.87157128       0.29240931
       396.84992       0.87737973       0.30243949
       403.26770       0.88380350       0.30674136
       409.79078       0.88810404       0.31095618
       416.41925       0.89147969       0.31522788
       423.15444       0.89462321       0.31955810
       427.517      0.849000      0.302000
       442.786      0.862000      0.346000
       459.185      0.884000      0.382000
       476.846      0.921000      0.403000
       495.920      0.960000      0.396000
       516.583      0.961000      0.373000
       539.043      0.943000      0.366000
       563.545      0.917000      0.381000
       590.381      0.897000      0.411000
       619.900      0.882000      0.455000
       652.526      0.883000      0.507000
       688.778      0.890000      0.561000
       729.294      0.913000      0.620000
       774.875      0.954000      0.673000
       799.871      0.981000      0.695000
       826.533       1.01000      0.707000
       855.034       1.03000      0.717000
       885.571       1.06000      0.724000
       953.692       1.08000      0.724000
       1033.17       1.09000      0.731000
       1127.09       1.07000      0.754000
       1239.80       1.04000      0.818000
       1305.05       1.03000      0.867000
       1377.56       1.03000      0.921000
       1458.59       1.03000      0.979000
       1549.75       1.03000       1.03000
       1653.07       1.01000       1.09000
       1771.14      0.972000       1.20000
       1907.38      0.958000       1.37000
       2066.33       1.04000       1.59000
       2137.59       1.10000       1.67000
       2213.93       1.18000       1.74000
       2295.93       1.28000       1.78000
       2384.23       1.38000       1.80000
       2479.60       1.47000       1.78000
       2582.92       1.53000       1.71000
       2695.22       1.52000       1.67000
       2817.73       1.49000       1.64000
       2951.90       1.42000       1.64000
       3099.50       1.34000       1.72000
       3262.63       1.34000       1.81000
       3443.89       1.31000       1.87000
       3646.47       1.27000       1.95000
       3874.38       1.18000       2.21000
       4132.67       1.18000       2.21000
       4427.86       1.17000       2.36000
       4768.46       1.15000       2.50000
       5165.83       1.12000       2.60000
       5390.44       1.04000       2.59000
       5635.45      0.826000       2.60000
       5903.81      0.468000       2.81000
       6199.00      0.272000       3.24000
       6525.26      0.214000       3.67000
       6701.62      0.215000       3.86000
       6887.78      0.213000       4.05000
       7084.57      0.214000       4.24000
       7292.94      0.223000       4.43000
       8265.33      0.260000       5.26000
       12398.0      0.433000       8.46000
       12651.0      0.496000       6.78000
       12914.6      0.505000       6.92000
       13189.4      0.515000       7.06000
       13476.1      0.525000       7.21000
       13775.6      0.536000       7.36000
       14088.6      0.547000       7.53000
       14416.3      0.559000       7.70000
       14759.5      0.572000       7.88000
       15119.5      0.586000       8.06000
       15497.5      0.606000       8.26000
       15894.9      0.627000       8.47000
       16313.2      0.649000       8.69000
       16754.1      0.672000       8.92000
       17219.4      0.697000       9.16000
       17711.4      0.723000       9.41000
       18232.4      0.752000       9.68000
       18784.8      0.782000       9.97000
       19371.9      0.815000       10.3000
       19996.8      0.850000       10.6000
       20663.3      0.890000       11.0000
       21375.9      0.933000       11.3000
       22139.3      0.980000       11.8000
       22959.3       1.03000       12.2000
       23842.3       1.09000       12.7000
       24796.0       1.15000       13.2000
       25829.2       1.22000       13.7000
       26952.2       1.29000       14.4000
       28177.3       1.37000       15.0000
       29519.0       1.47000       15.7000
       30995.0       1.59000       16.5000
       32626.3       1.73000       17.4000
       34438.9       1.90000       18.4000
       36464.7       2.09000       19.6000
       38743.8       2.32000       20.8000
       41326.7       2.59000       22.2000
       44278.6       2.92000       23.7000
       47684.6       3.32000       25.4000
       51658.3       3.81000       27.5000
       56354.5       4.44000       30.0000
       61990.0       5.23000       33.0000
       68877.8       6.23000       36.3000
       77487.5       7.66000       40.3000
       82653.3       8.57000       42.6000
       88557.1       9.64000       45.1000
       95369.2       10.8000       47.5000
