;  Optical constants for ZnSe, IRTRAN 4
; 
;   taken from:
;
;   'Handbook of Optical Constants of Solids II', Ed. by Edward D. Palik,
;   Academic Press, Inc., 1991.
;   
;    Lambda (A)            n            k
;-----------------------------------------
       29997.6       2.44500       0.00000
       39993.5       2.43800       0.00000
       49991.9       2.43400       0.00000
       60009.7       2.43000       0.00000
       70005.6       2.42500       0.00000
       79987.1       2.42200       0.00000
       89971.0       2.41700       0.00000
       99983.9       2.41000       0.00000
       110009.       2.40500       0.00000
       120019.       2.39800       0.00000
       130272.       2.39000       0.00000
       139995.       2.38000       0.00000
       285734.       2.00000       0.00000
       333280.       2.00000       0.00000
       399936.      0.200000       1.50000
       444373.      0.500000       2.80000
       476114.       2.50000       7.90000
       487726.       5.00000       4.80000
       499919.       8.40000       3.20000
       571336.       3.50000      0.400000
       666559.       3.40000      0.500000
