;  Optical constants for 
;  
;  Concatenation of:
;
;  Mo_llnl_cxro + Mo_tarrio + Mo_palik
;
;    Lambda (A)            n            k
;-----------------------------------------
      0.12398000       0.99999981    9.0297973e-10
      0.12499080       0.99999981    9.3226850e-10
      0.12600983       0.99999981    9.6254429e-10
      0.12703718       0.99999981    9.9381361e-10
      0.12807290       0.99999980    1.0260079e-09
      0.12911707       0.99999980    1.0593167e-09
      0.13016975       0.99999980    1.0935974e-09
      0.13123101       0.99999979    1.1290138e-09
      0.13230092       0.99999979    1.1655684e-09
      0.13337956       0.99999979    1.2032708e-09
      0.13446699       0.99999978    1.2424471e-09
      0.13556329       0.99999978    1.2824848e-09
      0.13666852       0.99999977    1.3242505e-09
      0.13778277       0.99999977    1.3668885e-09
      0.13890610       0.99999977    1.4111375e-09
      0.14003858       0.99999976    1.4567644e-09
      0.14118030       0.99999976    1.5038306e-09
      0.14233133       0.99999976    1.5525877e-09
      0.14349175       0.99999975    1.6025141e-09
      0.14466162       0.99999975    1.6545526e-09
      0.14584103       0.99999974    1.7076559e-09
      0.14703006       0.99999974    1.7629685e-09
      0.14822878       0.99999973    1.8199402e-09
      0.14943728       0.99999973    1.8786101e-09
      0.15065563       0.99999973    1.9397109e-09
      0.15188391       0.99999972    2.0020605e-09
      0.15312220       0.99999972    2.0670565e-09
      0.15437059       0.99999971    2.1337097e-09
      0.15562916       0.99999971    2.2023167e-09
      0.15689799       0.99999970    2.2732696e-09
      0.15817716       0.99999970    2.3466919e-09
      0.15946677       0.99999969    2.4225919e-09
      0.16076688       0.99999969    2.5000367e-09
      0.16207760       0.99999968    2.5809473e-09
      0.16339900       0.99999968    2.6637829e-09
      0.16473118       0.99999967    2.7496350e-09
      0.16607422       0.99999967    2.8382124e-09
      0.16742821       0.99999966    2.9293746e-09
      0.16879323       0.99999966    3.0234645e-09
      0.17016939       0.99999965    3.1206637e-09
      0.17155676       0.99999964    3.2211654e-09
      0.17295545       0.99999964    3.3248519e-09
      0.17436554       0.99999963    3.4315041e-09
      0.17578712       0.99999963    3.5421259e-09
      0.17722030       0.99999962    3.6555419e-09
      0.17866516       0.99999961    3.7730464e-09
      0.18012180       0.99999961    3.8936978e-09
      0.18159031       0.99999960    4.0185439e-09
      0.18307080       0.99999959    4.1470080e-09
      0.18456336       0.99999959    4.2798100e-09
      0.18606809       0.99999958    4.4170883e-09
      0.18758508       0.99999957    4.5585541e-09
      0.18911444       0.99999957    4.7047254e-09
      0.19065628       0.99999956    4.8549070e-09
      0.19221068       0.99999955    5.0108652e-09
      0.19377775       0.99999955    5.1702840e-09
      0.19535760       0.99999954    5.3363885e-09
      0.19695034       0.99999953    5.5061998e-09
      0.19855605       0.99999952    5.6824093e-09
      0.20017486       0.99999952    5.8644128e-09
      0.20180687       0.99999951    6.0513938e-09
      0.20345218       0.99999950    6.2450090e-09
      0.20511091       0.99999949    6.4450529e-09
      0.20678315       0.99999948    6.6502591e-09
      0.20846904       0.99999947    6.8620277e-09
      0.21016867       0.99999947    7.0812934e-09
      0.21188215       0.99999946    7.3050388e-09
      0.21360961       0.99999945    7.5373378e-09
      0.21535114       0.99999944    7.7769904e-09
      0.21710688       0.99999943    8.0249950e-09
      0.21887693       0.99999942    8.2799863e-09
      0.22066141       0.99999941    8.5433446e-09
      0.22246045       0.99999940    8.8156524e-09
      0.22427414       0.99999939    9.0959893e-09
      0.22610263       0.99999938    9.3844428e-09
      0.22794602       0.99999937    9.6828268e-09
      0.22980444       0.99999936    9.9881845e-09
      0.23167802       0.99999935    1.0306777e-08
      0.23356687       0.99999934    1.0631845e-08
      0.23547111       0.99999933    1.0970422e-08
      0.23739089       0.99999932    1.1317528e-08
      0.23932631       0.99999931    1.1674921e-08
      0.24127752       0.99999929    1.2044724e-08
      0.24324463       0.99999928    1.2426060e-08
      0.24522778       0.99999927    1.2819992e-08
      0.24722710       0.99999926    1.3226620e-08
      0.24924272       0.99999925    1.3645148e-08
      0.25127477       0.99999924    1.4076184e-08
      0.25332339       0.99999922    1.4520507e-08
      0.25538871       0.99999921    1.4979219e-08
      0.25747087       0.99999920    1.5453095e-08
      0.25957000       0.99999918    1.5939966e-08
      0.26168625       0.99999917    1.6440687e-08
      0.26381975       0.99999916    1.6956583e-08
      0.26597065       0.99999914    1.7490361e-08
      0.26813908       0.99999913    1.8040483e-08
      0.27032520       0.99999911    1.8607875e-08
      0.27252913       0.99999910    1.9193190e-08
      0.27475103       0.99999909    1.9796124e-08
      0.27699105       0.99999907    2.0417679e-08
      0.27924933       0.99999905    2.1055671e-08
      0.28152603       0.99999904    2.1716368e-08
      0.28382128       0.99999902    2.2395666e-08
      0.28613525       0.99999901    2.3099303e-08
      0.28846808       0.99999899    2.3818212e-08
      0.29081993       0.99999897    2.4567856e-08
      0.29319096       0.99999896    2.5333454e-08
      0.29558132       0.99999894    2.6132373e-08
      0.29799117       0.99999892    2.6947540e-08
      0.30042066       0.99999891    2.7793053e-08
      0.30286996       0.99999889    2.8662100e-08
      0.30533923       0.99999887    2.9561846e-08
      0.30782863       0.99999885    3.0488940e-08
      0.31033833       0.99999883    3.1437608e-08
      0.31286848       0.99999881    3.2421205e-08
      0.31541927       0.99999879    3.3434950e-08
      0.31799085       0.99999877    3.4476593e-08
      0.32058340       0.99999875    3.5553501e-08
      0.32319709       0.99999873    3.6660563e-08
      0.32583208       0.99999871    3.7800553e-08
      0.32848856       0.99999869    3.8975050e-08
      0.33116670       0.99999867    4.0179842e-08
      0.33386667       0.99999865    4.1425816e-08
      0.33658865       0.99999863    4.2709336e-08
      0.33933282       0.99999861    4.4028991e-08
      0.34209937       0.99999858    4.5389761e-08
      0.34488847       0.99999856    4.6785713e-08
      0.34770032       0.99999854    4.8227150e-08
      0.35053508       0.99999851    4.9714124e-08
      0.35339296       0.99999849    5.1247592e-08
      0.35627414       0.99999846    5.2825273e-08
      0.35917881       0.99999844    5.4449240e-08
      0.36210716       0.99999841    5.6129136e-08
      0.36505938       0.99999839    5.7855769e-08
      0.36803568       0.99999836    5.9638329e-08
      0.37103624       0.99999833    6.1471074e-08
      0.37406126       0.99999831    6.3367968e-08
      0.37711095       0.99999828    6.5322081e-08
      0.38018549       0.99999825    6.7335987e-08
      0.38328511       0.99999822    6.9417661e-08
      0.38641000       0.99999819    7.1567061e-08
      0.38956036       0.99999817    7.3775906e-08
      0.39273641       0.99999814    7.6054860e-08
      0.39593835       0.99999811    7.8394731e-08
      0.39916640       0.99999808    8.0806247e-08
      0.40242076       0.99999804    8.3281911e-08
      0.40570166       0.99999801    8.5847834e-08
      0.40900931       0.99999798    8.8482820e-08
      0.41234392       0.99999795    9.1810524e-08
      0.41570572       0.99999792    9.5158156e-08
      0.41909493       0.99999788    9.8356449e-08
      0.42251177       0.99999785    1.0162065e-07
      0.42595647       0.99999781    1.0495185e-07
      0.42942925       0.99999778    1.0835115e-07
      0.43293034       0.99999774    1.1182164e-07
      0.43645998       0.99999771    1.1536050e-07
      0.44001840       0.99999767    1.1897083e-07
      0.44360583       0.99999763    1.2265589e-07
      0.44722250       0.99999760    1.2641481e-07
      0.45086866       0.99999756    1.3024878e-07
      0.45454455       0.99999752    1.3416121e-07
      0.45825041       0.99999748    1.3815118e-07
      0.46198648       0.99999744    1.4222221e-07
      0.46575301       0.99999740    1.4637333e-07
      0.46955025       0.99999736    1.5060817e-07
      0.47337845       0.99999732    1.5492813e-07
      0.47723786       0.99999727    1.5933219e-07
      0.48112873       0.99999723    1.6382415e-07
      0.48505133       0.99999719    1.6840544e-07
      0.48900590       0.99999714    1.7360407e-07
      0.49299272       0.99999710    1.7915457e-07
      0.49701204       0.99999706    1.8481588e-07
      0.50106413       0.99999701    1.9059426e-07
      0.50514926       0.99999697    1.9648711e-07
      0.50926770       0.99999692    2.0250087e-07
      0.51341971       0.99999687    2.0863520e-07
      0.51760557       0.99999682    2.1489448e-07
      0.52182555       0.99999678    2.2127833e-07
      0.52607995       0.99999673    2.2778877e-07
      0.53036903       0.99999668    2.3443034e-07
      0.53469307       0.99999663    2.4120523e-07
      0.53905238       0.99999657    2.4811563e-07
      0.54344722       0.99999652    2.5516114e-07
      0.54787789       0.99999647    2.6294241e-07
      0.55234469       0.99999642    2.7098274e-07
      0.55684790       0.99999637    2.7918536e-07
      0.56138783       0.99999632    2.8755293e-07
      0.56596477       0.99999627    2.9608815e-07
      0.57057902       0.99999622    3.0479375e-07
      0.57523090       0.99999617    3.1367441e-07
      0.57992070       0.99999611    3.2273108e-07
      0.58464874       0.99999607    3.3240599e-07
      0.58941532       0.99999602    3.4229857e-07
      0.59422077       0.99999598    3.5238904e-07
      0.59906539       0.99999593    3.6268062e-07
      0.60394951       0.99999590    3.7343888e-07
      0.60887346       0.99999587    3.8441731e-07
      0.61383754       0.99999593    3.9578587e-07
      0.61884210       0.99999611    4.0738285e-07
      0.62388746       0.99999619    6.2310628e-08
      0.62897395       0.99999564    6.4250734e-08
      0.63410192       0.99999553    6.6264891e-08
      0.63927169       0.99999542    6.8324172e-08
      0.64448361       0.99999532    7.0465721e-08
      0.64973802       0.99999522    7.2659176e-08
      0.65503527       0.99999513    7.4959496e-08
      0.66037571       0.99999503    7.7306775e-08
      0.66575969       0.99999494    7.9701790e-08
      0.67118757       0.99999484    8.2182028e-08
      0.67665969       0.99999475    8.4896679e-08
      0.68217644       0.99999466    8.7667568e-08
      0.68773815       0.99999456    9.0494655e-08
      0.69334522       0.99999447    9.3379840e-08
      0.69899799       0.99999437    9.6323075e-08
      0.70469686       0.99999427    9.9326319e-08
      0.71044218       0.99999417    1.0239056e-07
      0.71623435       0.99999406    1.0551681e-07
      0.72207374       0.99999396    1.0870499e-07
      0.72796073       0.99999385    1.1195829e-07
      0.73389573       0.99999374    1.1527669e-07
      0.73987911       0.99999363    1.1929695e-07
      0.74591127       0.99999352    1.2481493e-07
      0.75199261       0.99999341    1.3044857e-07
      0.75812354       0.99999330    1.3621084e-07
      0.76430445       0.99999319    1.4209270e-07
      0.77053575       0.99999307    1.4810752e-07
      0.77681785       0.99999296    1.5424595e-07
      0.78315117       0.99999284    1.6050984e-07
      0.78953613       0.99999272    1.6691322e-07
      0.79597314       0.99999259    1.7345858e-07
      0.80246263       0.99999247    1.8012335e-07
      0.80900503       0.99999234    1.8694712e-07
      0.81560077       0.99999221    1.9390718e-07
      0.82225028       0.99999208    2.0100554e-07
      0.82895401       0.99999195    2.0827097e-07
      0.83571239       0.99999181    2.1566602e-07
      0.84252588       0.99999167    2.2323356e-07
      0.84939491       0.99999153    2.3094894e-07
      0.85631994       0.99999139    2.3881428e-07
      0.86330144       0.99999124    2.4686074e-07
      0.87033985       0.99999110    2.5506241e-07
      0.87743565       0.99999095    2.6343649e-07
      0.88458929       0.99999079    2.7197068e-07
      0.89180126       0.99999064    2.8068273e-07
      0.89907203       0.99999048    2.8959141e-07
      0.90640208       0.99999032    2.9865256e-07
      0.91379189       0.99999016    3.0791653e-07
      0.92124195       0.99998999    3.1735421e-07
      0.92875274       0.99998982    3.2700158e-07
      0.93632477       0.99998965    3.3682856e-07
      0.94395854       0.99998948    3.4685497e-07
      0.95165454       0.99998930    3.5708413e-07
      0.95941329       0.99998912    3.6751940e-07
      0.96723529       0.99998894    3.7816422e-07
      0.97512107       0.99998875    3.8900354e-07
      0.98307114       0.99998856    4.0007759e-07
      0.99108602       0.99998837    4.1137173e-07
      0.99916625       0.99998817    4.2288956e-07
       1.0073124       0.99998798    4.3461500e-07
       1.0155249       0.99998777    4.4659093e-07
       1.0238044       0.99998757    4.5880169e-07
       1.0321513       0.99998736    4.7125108e-07
       1.0405664       0.99998715    4.8394296e-07
       1.0490500       0.99998693    4.9688125e-07
       1.0576028       0.99998671    5.1006991e-07
       1.0662253       0.99998649    5.2351296e-07
       1.0749182       0.99998626    5.3721447e-07
       1.0836819       0.99998603    5.5120143e-07
       1.0925170       0.99998580    5.6545590e-07
       1.1014242       0.99998556    5.7995850e-07
       1.1104040       0.99998532    5.9478440e-07
       1.1194570       0.99998507    6.0986710e-07
       1.1285839       0.99998482    6.2523463e-07
       1.1377851       0.99998457    6.4091668e-07
       1.1470613       0.99998431    6.5689339e-07
       1.1564132       0.99998405    6.7316937e-07
       1.1658413       0.99998378    6.8977574e-07
       1.1753463       0.99998351    7.0669164e-07
       1.1849288       0.99998323    7.2392185e-07
       1.1945894       0.99998295    7.4149904e-07
       1.2043288       0.99998267    7.5937300e-07
       1.2141476       0.99998238    7.7763347e-07
       1.2240464       0.99998208    7.9620079e-07
       1.2340259       0.99998178    8.1624430e-07
       1.2440868       0.99998148    8.4995062e-07
       1.2542298       0.99998117    8.8443847e-07
       1.2644554       0.99998086    9.1961763e-07
       1.2747644       0.99998054    9.5555146e-07
       1.2851574       0.99998022    9.9225261e-07
       1.2956351       0.99997989    1.0297339e-06
       1.3061983       0.99997955    1.0680084e-06
       1.3168476       0.99997921    1.1070322e-06
       1.3275838       0.99997886    1.1469317e-06
       1.3384074       0.99997851    1.1876055e-06
       1.3493193       0.99997816    1.2291841e-06
       1.3603202       0.99997779    1.2715626e-06
       1.3714108       0.99997742    1.3148757e-06
       1.3825918       0.99997705    1.3590777e-06
       1.3938639       0.99997666    1.4041194e-06
       1.4052279       0.99997628    1.4501418e-06
       1.4166846       0.99997588    1.4970970e-06
       1.4282347       0.99997548    1.5450000e-06
       1.4398790       0.99997507    1.5938658e-06
       1.4516182       0.99997466    1.6437791e-06
       1.4634531       0.99997424    1.6946181e-06
       1.4753845       0.99997381    1.7465381e-06
       1.4874131       0.99997337    1.7995586e-06
       1.4995399       0.99997293    1.8535515e-06
       1.5117655       0.99997248    1.9086798e-06
       1.5240907       0.99997203    1.9648874e-06
       1.5365165       0.99997156    2.0221912e-06
       1.5490436       0.99997109    2.0806870e-06
       1.5616728       0.99997061    2.1403959e-06
       1.5744049       0.99997012    2.2011764e-06
       1.5872409       0.99996962    2.2632078e-06
       1.6001815       0.99996912    2.3265121e-06
       1.6132277       0.99996861    2.3910261e-06
       1.6263801       0.99996809    2.4567683e-06
       1.6396399       0.99996756    2.5239338e-06
       1.6530077       0.99996702    2.5922810e-06
       1.6664845       0.99996647    2.6620072e-06
       1.6800712       0.99996592    2.7331361e-06
       1.6937687       0.99996535    2.8055978e-06
       1.7075778       0.99996478    2.8795079e-06
       1.7214995       0.99996419    2.9548914e-06
       1.7355347       0.99996360    3.0316746e-06
       1.7496844       0.99996299    3.1099787e-06
       1.7639494       0.99996238    3.1898297e-06
       1.7783307       0.99996176    3.2711501e-06
       1.7928292       0.99996112    3.3540670e-06
       1.8074460       0.99996048    3.4386074e-06
       1.8221819       0.99995982    3.5247988e-06
       1.8370380       0.99995916    3.6125581e-06
       1.8520152       0.99995849    3.7243043e-06
       1.8671145       0.99995781    3.8489828e-06
       1.8823369       0.99995711    3.9762357e-06
       1.8976834       0.99995641    4.1060316e-06
       1.9131550       0.99995570    4.2385604e-06
       1.9287528       0.99995497    4.3737163e-06
       1.9444777       0.99995423    4.5116955e-06
       1.9603309       0.99995348    4.6524674e-06
       1.9763133       0.99995272    4.7959971e-06
       1.9924260       0.99995194    4.9424900e-06
       2.0086700       0.99995115    5.0919966e-06
       2.0250465       0.99995035    5.2443995e-06
       2.0415565       0.99994954    5.3999138e-06
       2.0582011       0.99994871    5.5585921e-06
       2.0749815       0.99994787    5.7203994e-06
       2.0918986       0.99994701    5.8853853e-06
       2.1089536       0.99994615    6.0536917e-06
       2.1261477       0.99994526    6.2253741e-06
       2.1434820       0.99994436    6.4003944e-06
       2.1609576       0.99994345    6.5789010e-06
       2.1785757       0.99994254    6.8004972e-06
       2.1963374       0.99994162    7.0299418e-06
       2.2142439       0.99994068    7.2642764e-06
       2.2322964       0.99993973    7.5034237e-06
       2.2504961       0.99993876    7.7474626e-06
       2.2688442       0.99993778    7.9964729e-06
       2.2873419       0.99993678    8.2505354e-06
       2.3059904       0.99993577    8.5097321e-06
       2.3247909       0.99993474    8.7743223e-06
       2.3437447       0.99993369    9.0440401e-06
       2.3628530       0.99993262    9.3195088e-06
       2.3821171       0.99993154    9.6002766e-06
       2.4015383       0.99993044    9.8867985e-06
       2.4211178       0.99992932    1.0178981e-05
       2.4408569       0.99992818    1.0477108e-05
       2.4607570       0.99992703    1.0781083e-05
       2.4808193       0.99992585    1.1091198e-05
       2.5010452       0.99992466    1.1407353e-05
       2.5214360       0.99992345    1.1729850e-05
       2.5419930       0.99992222    1.2058794e-05
       2.5627176       0.99992097    1.2394292e-05
       2.5836112       0.99991969    1.2736237e-05
       2.6046751       0.99991840    1.3084950e-05
       2.6259108       0.99991710    1.3455428e-05
       2.6473196       0.99991582    1.3889848e-05
       2.6689029       0.99991452    1.4333337e-05
       2.6906622       0.99991321    1.4785824e-05
       2.7125989       0.99991187    1.5247456e-05
       2.7347145       0.99991051    1.5718381e-05
       2.7570104       0.99990912    1.6198749e-05
       2.7794880       0.99990772    1.6688952e-05
       2.8021489       0.99990629    1.7189156e-05
       2.8249946       0.99990484    1.7699034e-05
       2.8480265       0.99990337    1.8219486e-05
       2.8712461       0.99990187    1.8749931e-05
       2.8946551       0.99990035    1.9291298e-05
       2.9182550       0.99989881    1.9843249e-05
       2.9420472       0.99989724    2.0406218e-05
       2.9660335       0.99989565    2.0980389e-05
       2.9902152       0.99989403    2.1565946e-05
       3.0145942       0.99989238    2.2163075e-05
       3.0391719       0.99989076    2.2805644e-05
       3.0639499       0.99988917    2.3507488e-05
       3.0889300       0.99988755    2.4223647e-05
       3.1141138       0.99988591    2.4954359e-05
       3.1395029       0.99988425    2.5699628e-05
       3.1650989       0.99988256    2.6459685e-05
       3.1909037       0.99988084    2.7235265e-05
       3.2169188       0.99987910    2.8026126e-05
       3.2431460       0.99987733    2.8832768e-05
       3.2695871       0.99987553    2.9655449e-05
       3.2962437       0.99987371    3.0494697e-05
       3.3231177       0.99987185    3.1350252e-05
       3.3502107       0.99987005    3.2268357e-05
       3.3775247       0.99986828    3.3240074e-05
       3.4050613       0.99986649    3.4231272e-05
       3.4328224       0.99986467    3.5242268e-05
       3.4608099       0.99986283    3.6273656e-05
       3.4890255       0.99986095    3.7325498e-05
       3.5174712       0.99985905    3.8398404e-05
       3.5461488       0.99985712    3.9492438e-05
       3.5750602       0.99985516    4.0608229e-05
       3.6042074       0.99985318    4.1746428e-05
       3.6335921       0.99985133    4.2959540e-05
       3.6632164       0.99984953    4.4221225e-05
       3.6930823       0.99984771    4.5508426e-05
       3.7231916       0.99984586    4.6821024e-05
       3.7535465       0.99984399    4.8159980e-05
       3.7841488       0.99984209    4.9525170e-05
       3.8150006       0.99984017    5.0917583e-05
       3.8461039       0.99983822    5.2337670e-05
       3.8774608       0.99983649    5.3835916e-05
       3.9090734       0.99983481    5.5377876e-05
       3.9409437       0.99983311    5.6950620e-05
       3.9730738       0.99983140    5.8554414e-05
       4.0054659       0.99982966    6.0189761e-05
       4.0381221       0.99982790    6.1857675e-05
       4.0710445       0.99982653    6.3619203e-05
       4.1042353       0.99982522    6.5426042e-05
       4.1376967       0.99982390    6.7268834e-05
       4.1714310       0.99982258    6.9147981e-05
       4.2054403       0.99982184    7.1106388e-05
       4.2397268       0.99982117    7.3108242e-05
       4.2742929       0.99982225    7.5180377e-05
       4.3091408       0.99982353    7.7295932e-05
       4.3442728       0.99982940    6.9913584e-05
       4.3796912       0.99981844    7.1870328e-05
       4.4153984       0.99981603    7.3880396e-05
       4.4513967       0.99981441    7.5950891e-05
       4.4876885       0.99981322    7.8073295e-05
       4.5242762       0.99981275    8.0259398e-05
       4.5611622       0.99981264    8.2499120e-05
       4.5983489       0.99981379    8.4810416e-05
       4.6358388       0.99981552    8.7179022e-05
       4.6736344       0.99982731    8.9620881e-05
       4.7117381       0.99984317    9.2121046e-05
       4.7501524       0.99984509    6.9002659e-05
       4.7888799       0.99982066    7.0957355e-05
       4.8279232       0.99982037    7.2973118e-05
       4.8672848       0.99983332    7.5050764e-05
       4.9069673       0.99984734    7.7170859e-05
       4.9469733       0.99986575    2.3088484e-05
       4.9873055       0.99981032    2.3750329e-05
       5.0279666       0.99979765    2.4431484e-05
       5.0689591       0.99978841    2.5133951e-05
       5.1102858       0.99977940    2.5852910e-05
       5.1519495       0.99977191    2.6596060e-05
       5.1939528       0.99976449    2.7357192e-05
       5.2362986       0.99975771    2.8144204e-05
       5.2789897       0.99975094    2.8950254e-05
       5.3220288       0.99974450    2.9782140e-05
       5.3654187       0.99973812    3.0639088e-05
       5.4091625       0.99973210    3.1534891e-05
       5.4532629       0.99972597    3.2448538e-05
       5.4977228       0.99971972    3.3380322e-05
       5.5425452       0.99971335    3.4330830e-05
       5.5877330       0.99970687    3.5300076e-05
       5.6332893       0.99970049    3.6310045e-05
       5.6792169       0.99969439    3.7379908e-05
       5.7255190       0.99968818    3.8471204e-05
       5.7721986       0.99968187    3.9584053e-05
       5.8192588       0.99967543    4.0719269e-05
       5.8667027       0.99966889    4.1876986e-05
       5.9145333       0.99966222    4.3057813e-05
       5.9627539       0.99965544    4.4261640e-05
       6.0113677       0.99964874    4.5540808e-05
       6.0603778       0.99964218    4.6909935e-05
       6.1097875       0.99963550    4.8307097e-05
       6.1596000       0.99962870    4.9731734e-05
       6.2098186       0.99962179    5.1184805e-05
       6.2604467       0.99961476    5.2667308e-05
       6.3114875       0.99960761    5.4178651e-05
       6.3629444       0.99960033    5.5720940e-05
       6.4148209       0.99959292    5.7293025e-05
       6.4671203       0.99958539    5.8896511e-05
       6.5198461       0.99957773    6.0531920e-05
       6.5730018       0.99956993    6.2199192e-05
       6.6265908       0.99956200    6.3899434e-05
       6.6806168       0.99955394    6.5633191e-05
       6.7350832       0.99954596    6.7562438e-05
       6.7899937       0.99953799    6.9630363e-05
       6.8453519       0.99952989    7.1740194e-05
       6.9011614       0.99952165    7.3892623e-05
       6.9574259       0.99951327    7.6088351e-05
       7.0141491       0.99950475    7.8328088e-05
       7.0713348       0.99949608    8.0611383e-05
       7.1289867       0.99948727    8.2941291e-05
       7.1871086       0.99947831    8.5317398e-05
       7.2457044       0.99946919    8.7741686e-05
       7.3047779       0.99945993    9.0212470e-05
       7.3643331       0.99945051    9.2733003e-05
       7.4243738       0.99944092    9.5302834e-05
       7.4849040       0.99943118    9.7924068e-05
       7.5459277       0.99942127    0.00010059623
       7.6074489       0.99941120    0.00010332014
       7.6694717       0.99940095    0.00010609938
       7.7320001       0.99939054    0.00010893071
       7.7950384       0.99937994    0.00011181917
       7.8585906       0.99936917    0.00011476287
       7.9226609       0.99935858    0.00011820879
       7.9872536       0.99934788    0.00012180129
       8.0523729       0.99933700    0.00012546407
       8.1180231       0.99932594    0.00012920047
       8.1842086       0.99931470    0.00013301170
       8.2509337       0.99930327    0.00013689899
       8.3182027       0.99929165    0.00014086596
       8.3860202       0.99927984    0.00014490913
       8.4543906       0.99926784    0.00014903459
       8.5233185       0.99925564    0.00015324123
       8.5928082       0.99924323    0.00015753037
       8.6628646       0.99923063    0.00016190591
       8.7334921       0.99921781    0.00016636670
       8.8046954       0.99920478    0.00017091409
       8.8764792       0.99919154    0.00017555217
       8.9488483       0.99917808    0.00018028248
       9.0218074       0.99916439    0.00018510376
       9.0953613       0.99915048    0.00019002030
       9.1695149       0.99913634    0.00019503078
       9.2442731       0.99912197    0.00020013964
       9.3196408       0.99910736    0.00020534850
       9.3956229       0.99909250    0.00021065903
       9.4722245       0.99907741    0.00021606981
       9.5494506       0.99906214    0.00022170251
       9.6273064       0.99904711    0.00022815320
       9.7057969       0.99903184    0.00023473242
       9.7849273       0.99901632    0.00024143928
       9.8647029       0.99900055    0.00024828178
       9.9451288       0.99898453    0.00025525918
       10.026211       0.99896824    0.00026237675
       10.107953       0.99895169    0.00026963370
       10.190362       0.99893487    0.00027703228
       10.273443       0.99891778    0.00028457802
       10.357202       0.99890041    0.00029227006
       10.441643       0.99888277    0.00030011412
       10.526773       0.99886483    0.00030810929
       10.612597       0.99884660    0.00031626493
       10.699120       0.99882808    0.00032457673
       10.786349       0.99880926    0.00033305077
       10.874289       0.99879014    0.00034168605
       10.962946       0.99877070    0.00035049253
       11.052326       0.99875124    0.00035985671
       11.142434       0.99873199    0.00037008604
       11.233278       0.99871243    0.00038051839
       11.324861       0.99869256    0.00039115350
       11.417192       0.99867238    0.00040200187
       11.510275       0.99865187    0.00041306338
       11.604117       0.99863104    0.00042434148
       11.698725       0.99860988    0.00043584354
       11.794103       0.99858839    0.00044756939
       11.890259       0.99856655    0.00045952660
       11.987199       0.99854436    0.00047171499
       12.084930       0.99852182    0.00048414235
       12.183457       0.99849892    0.00049680848
       12.282788       0.99847566    0.00050972142
       12.382928       0.99845216    0.00052240923
       12.483885       0.99842841    0.00053490155
       12.585665       0.99840428    0.00054763033
       12.688275       0.99837976    0.00056060042
       12.791721       0.99835395    0.00057503484
       12.896010       0.99832705    0.00059065467
       13.001150       0.99830132    0.00060743473
       13.107148       0.99827626    0.00062512403
       13.214009       0.99825082    0.00064316376
       13.321741       0.99822498    0.00066156533
       13.430352       0.99819836    0.00068333716
       13.539849       0.99817237    0.00069915093
       13.650238       0.99814561    0.00071445501
       13.761527       0.99812012    0.00073744002
       13.873723       0.99809085    0.00075527887
       13.986834       0.99806391    0.00077367862
       14.100868       0.99803392    0.00079470810
       14.215831       0.99800307    0.00081647510
       14.331731       0.99797424    0.00084148568
       14.448576       0.99794808    0.00086584091
       14.566374       0.99792395    0.00088972038
       14.685132       0.99789952    0.00091406952
       14.804859       0.99786732    0.00093641566
       14.925561       0.99783986    0.00096351781
       15.047248       0.99781333    0.00098651446
       15.169927       0.99778783     0.0010107666
       15.293606       0.99775685     0.0010320171
       15.418293       0.99772453     0.0010548220
       15.543997       0.99769262     0.0010830514
       15.670725       0.99766024     0.0011118349
       15.798487       0.99762079     0.0011417205
       15.927291       0.99757613     0.0011725668
       16.057145       0.99754900     0.0012113604
       16.188057       0.99752701     0.0012435240
       16.320037       0.99749955     0.0012766170
       16.453092       0.99747174     0.0013103570
       16.587233       0.99744281     0.0013414435
       16.722467       0.99741409     0.0013702011
       16.858803       0.99738724     0.0014017532
       16.996252       0.99736007     0.0014338943
       17.134820       0.99731766     0.0014716961
       17.274519       0.99727493     0.0015039204
       17.415356       0.99723694     0.0015527294
       17.557342       0.99720816     0.0015870691
       17.700486       0.99717241     0.0016350694
       17.844796       0.99715071     0.0016780862
       17.990283       0.99712512     0.0017157337
       18.136956       0.99709868     0.0017530886
       18.284825       0.99707198     0.0017911293
       18.433899       0.99704053     0.0018293768
       18.584189       0.99700182     0.0018675630
       18.735704       0.99697319     0.0019120756
       18.888454       0.99693840     0.0019556318
       19.042450       0.99690548     0.0019973170
       19.197701       0.99687476     0.0020447441
       19.354218       0.99684058     0.0020892741
       19.512011       0.99680598     0.0021346222
       19.671091       0.99677096     0.0021808055
       19.831467       0.99673550     0.0022278340
       19.993151       0.99669960     0.0022757252
       20.156154       0.99666455     0.0023403096
       20.320485       0.99663655     0.0024025876
       20.486156       0.99662503     0.0024572621
       20.653177       0.99659347     0.0025089174
       20.821561       0.99658757     0.0025471953
       20.991317       0.99658519     0.0025830568
       21.162457       0.99654286     0.0025868310
       21.334993       0.99640212     0.0026272394
       21.508935       0.99639182     0.0027377020
       21.684295       0.99643811     0.0028670105
       21.861085       0.99636305     0.0028467225
       22.039316       0.99633755     0.0029249838
       22.219001       0.99627025     0.0029170329
       22.400150       0.99619371     0.0030282544
       22.582776       0.99616139     0.0031334774
       22.766892       0.99613736     0.0031247078
       22.952508       0.99615131     0.0033174429
       23.139637       0.99611343     0.0034892719
       23.328293       0.99610843     0.0035658820
       23.518486       0.99611834     0.0036140491
       23.710230       0.99615521     0.0036837057
       23.903537       0.99618423     0.0037270980
       24.098420       0.99622689     0.0037533349
       24.294892       0.99619226     0.0037908414
       24.492966       0.99617598     0.0037910597
       24.692655       0.99615440     0.0038572834
       24.893972       0.99611019     0.0038569939
       25.096930       0.99605343     0.0038934064
       25.301543       0.99596503     0.0039907805
       25.507824       0.99596885     0.0041159698
       25.715787       0.99591032     0.0041207352
       25.925445       0.99589493     0.0042136988
       26.136813       0.99580257     0.0042666147
       26.349904       0.99576777     0.0044131428
       26.564732       0.99572801     0.0044619117
       26.781312       0.99569459     0.0045929428
       26.999657       0.99565155     0.0047240093
       27.219783       0.99562884     0.0048157390
       27.441703       0.99561413     0.0050025851
       27.665432       0.99569959     0.0051720786
       27.890986       0.99578331     0.0052651191
       28.118378       0.99588117     0.0052912912
       28.347625       0.99590170     0.0052857164
       28.578740       0.99586969     0.0052978237
       28.811740       0.99584127     0.0053446251
       29.046639       0.99573767     0.0054068996
       29.283454       0.99570781     0.0055465089
       29.522199       0.99576259     0.0055906863
       29.762891       0.99551643     0.0056791544
       30.005545       0.99531500     0.0062619123
       30.250177       0.99605924     0.0062118293
       30.496804       0.99587245     0.0062285835
       30.745441       0.99601611     0.0062811543
       30.996106       0.99574597     0.0062751746
       31.248814       0.99538501     0.0069605851
       31.503583       0.99723323     0.0078024192
       31.760428       0.99709347     0.0063922375
       32.019368       0.99676412     0.0062656619
       32.280419       0.99669881     0.0062607930
       32.543598       0.99665690     0.0062504670
       32.808923       0.99650816     0.0062402822
       33.076411       0.99642939     0.0062632121
       33.346079       0.99633976     0.0063409958
       33.617947       0.99629892     0.0064530413
       33.892031       0.99629451     0.0065289031
       34.168349       0.99626756     0.0065935698
       34.446920       0.99626392     0.0066902106
       34.727763       0.99629092     0.0067886431
       35.010895       0.99632115     0.0068886178
       35.296335       0.99633222     0.0069412800
       35.584103       0.99635612     0.0070077506
       35.874217       0.99633249     0.0070874679
       36.166696       0.99634703     0.0071972032
       36.461559       0.99639958     0.0072718640
       36.758827       0.99645221     0.0073397972
       37.058518       0.99649378     0.0073905892
       37.360653       0.99649544     0.0074609016
       37.665250       0.99651461     0.0075613240
       37.972331       0.99655090     0.0076786115
       38.281916       0.99662339     0.0078093721
       38.594025       0.99674567     0.0079222061
       38.908678       0.99690526     0.0079873288
       39.225897       0.99706062     0.0080247533
       39.545702       0.99721752     0.0080523695
       39.868114       0.99736732     0.0080384218
       40.193155       0.99753470     0.0079673801
       40.520846       0.99759182     0.0078777167
       40.851209       0.99770730     0.0078431259
       41.184265       0.99772766     0.0077606001
       41.520036       0.99777731     0.0077035458
       41.858545       0.99780326     0.0076447243
       42.199813       0.99782715     0.0076090015
       42.543864       0.99785937     0.0075975021
       42.890720       0.99791287     0.0075861794
       43.240404       0.99797149     0.0075744986
       43.592939       0.99803797     0.0075631666
       43.948348       0.99811609     0.0075587343
       44.306655       0.99824839     0.0075801714
       44.667883       0.99843505     0.0076008587
       45.032056       0.99869760     0.0075242829
       45.399198       0.99895397     0.0073273346
       45.769333       0.99918678     0.0070881266
       46.142486       0.99941758     0.0068346704
       46.518681       0.99960698     0.0064967606
       46.897943       0.99973065     0.0059989519
       47.280298       0.99976551     0.0054501664
       47.665769       0.99963266     0.0049365748
       48.054384       0.99940148     0.0044380941
       48.446167       0.99907002     0.0040345771
       48.841143       0.99870202     0.0036886025
       49.239341       0.99830573     0.0034338863
       49.640784       0.99791565     0.0033019581
       50.045501       0.99763284     0.0032323507
       50.453517       0.99733127     0.0031745758
       50.864859       0.99711296     0.0030573049
       51.279556       0.99685991     0.0028446230
       51.697633       0.99656429     0.0026379557
       52.119119       0.99616979     0.0025049905
       52.544041       0.99577488     0.0024320843
       52.972427       0.99546358     0.0024214852
       53.404306       0.99516627     0.0023960076
       53.839707       0.99489984     0.0023154058
       54.278657       0.99459720     0.0023257205
       54.721185       0.99428505     0.0021789983
       55.167322       0.99390887     0.0021984599
       55.617096       0.99358276     0.0022251102
       56.070536       0.99328234     0.0022574426
       56.527674       0.99299469     0.0022826761
       56.988539       0.99271235     0.0023120274
       57.453161       0.99242807     0.0023321651
       57.921571       0.99215147     0.0023660680
       58.393800       0.99187786     0.0023867302
       58.869879       0.99160473     0.0024159407
       59.349839       0.99132740     0.0024474577
       59.833713       0.99104439     0.0024794250
       60.321531       0.99077076     0.0025073836
       60.813327       0.99050525     0.0025469331
       61.309132       0.99023492     0.0025780271
       61.808979       0.98996533     0.0026182135
       62.312902       0.98969879     0.0026361901
       62.820933       0.98940939     0.0026707819
       63.333106       0.98912675     0.0026964352
       63.849455       0.98884387     0.0027336848
       64.370013       0.98856274     0.0027780082
       64.894816       0.98829180     0.0028199944
       65.423897       0.98803453     0.0028458175
       65.957292       0.98777076     0.0028595384
       66.495035       0.98746478     0.0027960989
       67.037163       0.98710687     0.0028360274
       67.583710       0.98680808     0.0028835975
       68.134713       0.98649844     0.0029064953
       68.690209       0.98617346     0.0029258530
       69.250234       0.98584560     0.0029854122
       69.814824       0.98550791     0.0030023831
       70.384018       0.98516375     0.0030183817
       70.957852       0.98483882     0.0030782411
       71.536364       0.98449303     0.0031100581
       72.119593       0.98416664     0.0031650315
       72.707578       0.98381562     0.0031912131
       73.300355       0.98348134     0.0032436923
       73.897966       0.98312611     0.0032401876
       74.500449       0.98276286     0.0032960130
       75.107844       0.98238366     0.0033294344
       75.720191       0.98199745     0.0033632332
       76.337530       0.98162435     0.0034122421
       76.959903       0.98124226     0.0034466752
       77.587350       0.98085487     0.0034992050
       78.219912       0.98047105     0.0035437265
       78.857631       0.98008037     0.0035888733
       79.500550       0.97968300     0.0036336716
       80.148710       0.97928524     0.0036555986
       80.802155       0.97888360     0.0036910469
       81.460927       0.97847418     0.0037169297
       82.125070       0.97806620     0.0037498876
       82.794628       0.97762420     0.0037527764
       83.469644       0.97717942     0.0037681706
       84.150164       0.97673633     0.0037857485
       84.836232       0.97625277     0.0037674362
       85.527894       0.97577903     0.0038002703
       86.225195       0.97529682     0.0038303047
       86.928180       0.97479867     0.0038321408
       87.636897       0.97428586     0.0038203883
       88.351392       0.97373093     0.0038481407
      88.5571      0.972300    0.00480000
      95.3692      0.967400    0.00489000
      103.317      0.961200    0.00522000
      112.709      0.953300    0.00581500
      130.505      0.931300    0.00623000
      137.756      0.920300    0.00758500
      145.859      0.906800     0.0105600
      154.975      0.881200     0.0160000
      165.307      0.865000     0.0278000
      173.600      0.836900     0.0395000
      177.114      0.836500     0.0477000
      177.114      0.837500     0.0440000
      178.481      0.825500     0.0491000
      183.359      0.812700     0.0602500
      188.239      0.803100     0.0727000
      198.010      0.783000      0.101140
      202.900      0.772000      0.118800
      206.633      0.778300      0.129700
      207.790      0.768000      0.137700
      212.681      0.764000      0.158500
      217.570      0.764900      0.177600
      222.469      0.765700      0.193800
      227.361      0.770700      0.206500
      232.259      0.774200      0.223700
      237.160      0.785000      0.236200
      242.059      0.792200      0.243600
      246.962      0.799000      0.253600
      247.960      0.811600      0.257000
      251.859      0.806300      0.265000
      256.762      0.813400      0.262400
      261.672      0.817500      0.272100
      266.578      0.821000      0.280800
      271.481      0.822700      0.288600
      276.389      0.825600      0.294900
      281.312      0.834400      0.294900
      286.222      0.838900      0.286800
      291.129      0.847100      0.285100
      296.050      0.850900      0.274700
      300.973      0.853500      0.254300
      305.882      0.850900      0.221300
      309.950      0.859000      0.162000
      310.797      0.851500      0.199400
      315.728      0.854300      0.166900
      320.652      0.860900      0.159500
      325.569      0.864800      0.145300
      330.499      0.871000      0.138800
      335.426      0.876000      0.129000
       337.361      0.811000      0.312000
       339.671      0.812000      0.321000
       342.014      0.815000      0.331000
       344.389      0.819000      0.341000
       346.313      0.825000      0.350000
       348.258      0.831000      0.358000
       350.226      0.841000      0.367000
       352.216      0.853000      0.373000
       354.229      0.867000      0.375000
       356.264      0.880000      0.373000
       358.324      0.893000      0.368000
       360.407      0.901000      0.360000
       362.515      0.907000      0.352000
       364.647      0.911000      0.344000
       366.805      0.912000      0.334000
       368.988      0.910000      0.326000
       370.090      0.907000      0.322000
       371.198      0.903000      0.321000
       373.434      0.897000      0.323000
       375.697      0.896000      0.327000
       377.988      0.898000      0.330000
       380.307      0.901000      0.331000
       382.654      0.907000      0.331000
       385.031      0.912000      0.327000
       387.438      0.915000      0.323000
       390.488      0.918000      0.315000
       393.587      0.919000      0.307000
       396.736      0.918000      0.298000
       399.935      0.915000      0.288000
       403.187      0.909000      0.279000
       406.492      0.902000      0.271000
       409.851      0.892000      0.263000
       413.267      0.879000      0.259000
       416.740      0.868000      0.256000
       420.271      0.855000      0.257000
       423.863      0.844000      0.256000
       427.517      0.832000      0.259000
       431.235      0.822000      0.261000
       435.018      0.811000      0.263000
       438.867      0.799000      0.265000
       442.786      0.788000      0.269000
       446.775      0.776000      0.272000
       450.836      0.764000      0.276000
       454.972      0.750000      0.281000
       459.185      0.734000      0.289000
       463.477      0.721000      0.298000
       467.849      0.706000      0.308000
       472.305      0.694000      0.319000
       476.846      0.680000      0.329000
       480.543      0.666000      0.341000
       484.297      0.656000      0.353000
       488.110      0.645000      0.367000
       491.984      0.636000      0.380000
       495.920      0.624000      0.393000
       499.919      0.612000      0.410000
       503.984      0.603000      0.429000
       508.115      0.596000      0.447000
       512.314      0.588000      0.468000
       516.583      0.583000      0.491000
       520.924      0.581000      0.511000
       525.339      0.579000      0.532000
       529.829      0.579000      0.553000
       534.397      0.579000      0.575000
       539.043      0.582000      0.595000
       543.772      0.586000      0.614000
       548.584      0.589000      0.633000
       553.482      0.594000      0.650000
       558.468      0.596000      0.668000
       563.545      0.602000      0.685000
       568.716      0.607000      0.700000
       573.981      0.608000      0.715000
       579.346      0.609000      0.733000
       584.811      0.610000      0.752000
       590.381      0.612000      0.773000
       596.058      0.616000      0.794000
       601.845      0.621000      0.815000
       607.745      0.626000      0.838000
       613.762      0.632000      0.862000
       619.900      0.639000      0.887000
       626.162      0.648000      0.913000
       632.551      0.660000      0.940000
       639.072      0.674000      0.968000
       645.729      0.691000      0.996000
       652.526      0.712000       1.02000
       659.468      0.737000       1.05000
       666.559      0.766000       1.08000
       673.804      0.799000       1.10000
       681.209      0.833000       1.11000
       688.778      0.866000       1.12000
       696.517      0.903000       1.13000
       704.432      0.940000       1.14000
       712.529      0.978000       1.14000
       720.814       1.01000       1.13000
       729.294       1.04000       1.12000
       737.976       1.07000       1.11000
       746.867       1.10000       1.10000
       755.976       1.12000       1.08000
       765.309       1.13000       1.06000
       774.875       1.14000       1.04000
       784.684       1.15000       1.02000
       794.744       1.15000       1.01000
       805.065       1.15000      0.994000
       815.658       1.14000      0.989000
       826.533       1.14000      0.987000
       837.703       1.14000      0.987000
       849.178       1.13000      0.990000
       860.972       1.13000      0.997000
       873.099       1.14000       1.01000
       885.571       1.15000       1.01000
       898.406       1.15000       1.02000
       911.618       1.17000       1.02000
       925.224       1.18000       1.02000
       939.242       1.20000       1.03000
       953.692       1.21000       1.02000
       968.594       1.23000       1.01000
       983.968       1.24000      0.993000
       999.839       1.25000      0.975000
       1016.23       1.26000      0.953000
       1033.17       1.26000      0.921000
       1050.68       1.25000      0.886000
       1068.79       1.23000      0.845000
       1087.54       1.18000      0.802000
       1106.96       1.12000      0.782000
       1127.09       1.05000      0.774000
       1147.96      0.977000      0.791000
       1169.62      0.909000      0.835000
       1192.12      0.859000      0.881000
       1215.49      0.812000      0.930000
       1239.80      0.770000      0.987000
       1265.10      0.735000       1.05000
       1291.46      0.707000       1.12000
       1318.94      0.685000       1.19000
       1347.61      0.670000       1.25000
       1377.56      0.652000       1.33000
       1408.86      0.647000       1.41000
       1441.63      0.649000       1.49000
       1475.95      0.659000       1.57000
       1511.95      0.672000       1.65000
       1549.75      0.685000       1.73000
       1569.37      0.697000       1.77000
       1589.49      0.711000       1.81000
       1610.13      0.726000       1.85000
       1631.32      0.745000       1.90000
       1653.07      0.781000       1.93000
       1675.41      0.808000       1.95000
       1698.36      0.816000       1.96000
       1721.94      0.813000       1.98000
       1746.20      0.808000       2.00000
       1771.14      0.798000       2.04000
       1796.81      0.791000       2.08000
       1823.24      0.784000       2.12000
       1850.45      0.777000       2.18000
       1878.48      0.779000       2.24000
       1907.38      0.783000       2.30000
       1937.19      0.789000       2.36000
       1967.94      0.798000       2.43000
       1999.68      0.813000       2.50000
       2032.46      0.836000       2.57000
       2066.33      0.850000       2.64000
       2101.36      0.873000       2.72000
       2137.59      0.895000       2.80000
       2175.09      0.924000       2.89000
       2213.93      0.959000       2.99000
       2254.18       1.00000       3.09000
       2295.93       1.06000       3.20000
       2339.25       1.13000       3.31000
       2384.23       1.22000       3.42000
       2430.98       1.33000       3.53000
       2479.60       1.46000       3.62000
       2530.20       1.61000       3.70000
       2582.92       1.75000       3.76000
       2637.87       1.90000       3.81000
       2695.22       2.06000       3.84000
       2755.11       2.21000       3.87000
       2817.73       2.39000       3.88000
       2883.26       2.59000       3.86000
       2951.90       2.77000       3.77000
       3023.90       2.91000       3.67000
       3099.50       3.01000       3.51000
       3178.97       3.04000       3.40000
       3262.63       3.04000       3.31000
       3350.81       3.04000       3.27000
       3443.89       3.05000       3.24000
       3542.29       3.06000       3.21000
       3646.47       3.06000       3.19000
       3756.97       3.06000       3.18000
       3874.38       3.05000       3.18000
       3999.35       3.03000       3.22000
       4132.67       3.04000       3.27000
       4275.17       3.05000       3.33000
       4427.86       3.08000       3.42000
       4591.85       3.13000       3.51000
       4768.46       3.22000       3.61000
       4959.20       3.36000       3.73000
       5165.83       3.59000       3.78000
       5390.44       3.79000       3.61000
       5635.45       3.76000       3.41000
       5903.81       3.68000       3.45000
       6199.00       3.68000       3.52000
       6525.26       3.74000       3.58000
       6887.78       3.81000       3.58000
       7292.94       3.84000       3.51000
       7748.75       3.77000       3.41000
       8265.33       3.53000       3.30000
       8855.71       3.15000       3.40000
       9536.92       2.77000       3.74000
       10331.7       2.44000       4.22000
       11270.9       2.16000       4.85000
       12398.0       1.94000       5.58000
       13775.6       1.74000       6.48000
       14416.3       1.70000       6.90000
       15119.5       1.64000       7.35000
       15894.9       1.60000       7.83000
       16754.1       1.52000       8.38000
       17711.4       1.48000       8.99000
       18784.8       1.43000       9.67000
       19996.8       1.38000       10.4000
       21375.9       1.34000       11.3000
       22959.3       1.35000       12.4000
       24796.0       1.37000       13.5000
       26952.2       1.46000       14.9000
       29519.0       1.57000       16.5000
       32626.3       1.70000       18.4000
       36464.7       1.99000       20.8000
       41326.7       2.44000       23.8000
       42751.7       2.58000       24.7000
       44278.6       2.74000       25.6000
       45918.5       2.92000       26.6000
       47684.6       3.14000       27.6000
       49592.0       3.36000       28.8000
       51658.3       3.61000       30.0000
       53904.3       3.92000       31.3000
       56354.5       4.26000       32.7000
       59038.1       4.65000       34.3000
       61990.0       5.10000       36.0000
       65252.6       5.61000       37.8000
       68877.8       6.21000       39.9000
       72929.4       6.90000       42.2000
       77487.5       7.74000       44.7000
       82653.3       8.78000       47.5000
       88557.1       9.96000       50.7000
       95369.2       11.4000       54.4000
       103317.       13.4000       58.4000
       112709.       15.6000       63.1000
       123980.       18.5000       68.5000
