;  Optical constants for Pd
; 
;   taken from:
;
;   D. L. Windt, Webster C. Cash, Jr., M. Scott, P. Arendt, B. Newnam,
;   R. F. Fisher, and A. B. Swartzlander, 'Optical Constants for thin films
;   of Ti, Zr, Nb, Mo, Ru, Rh, Pd, Ag, Hf, Ta, W, Re, Ir, Os, Pt, and Au
;   from 24 to 1216 A', App. Opt., 27, 246, 1988.
;   
;    Lambda (A)            n            k
;-----------------------------------------
   23.620      .99619	.00378
   31.600      .99757	.00477
   44.700      .99302	.00208
   67.600      .9818	.00311
   114.00      .9246	.00392
   135.50      .871	.025
   171.40      .835	.148
   243.03      .879	.244
   256.32      .851	.224
   303.78      .821	.247
   327.00      .799	.310
   356.80      .758	.307
   379.31      .763	.420
   405.85      .794	.451
   447.81      .780	.495
   460.73      .765	.547
   489.50      .809	.625
   539.09      .853	.763
   584.33      .913	.850
   616.29      .990	.790
   671.39      1.03	.766
   718.48      1.06	.778
   735.90      1.07	.824
   743.72      .936	.744
   834.46      1.24	.877
   878.00      1.23	.815
   919.78      1.36	.796
   932.05      1.30	.749
   988.78      1.28	.733
   1025.8      1.46	.708
   1048.2      1.38	.691
   1066.7      1.30	.666
   1085.7      1.62	.533
   1135.0      1.4	.605
   1200.7      1.36	.560
   1215.7      1.27	.592
