;  Optical constants for Pt created by:
; 
;   R. Soufli, F. Delmotte, J. Meyer-Ilse, F. Salmassi, N. Brejnholt, S. Massahi, 
;   D. Girou, F. Christensen, E. M. Gullikson, “Optical constants of magnetron sputtered 
;   Pt thin films with improved accuracy in the N- and O- electronic shell absorption regions”, 
;   J.Appl. Phys. 125, 085106 (2019).
;
;   The above publication determined new experimental values at 16 A - 495.9 A.
;   (n, k) values from Palik (vol. 1, pp. 333-341) are used at 570.02 - 123980  A
;   The rest of the spectrum contains (n,k) values from calculations and the literature (see publication for more details)
;
; Lambda (A)      n               k
0.028636425	1.00E+00	4.62E-11
0.030612338	1.00E+00	5.85E-11
0.032724593	1.00E+00	7.42E-11
0.034982586	1.00E+00	9.40E-11
0.037396382	1.00E+00	1.20E-10
0.039976732	1.00E+00	1.53E-10
0.042735131	1.00E+00	1.95E-10
0.045683856	1.00E+00	2.50E-10
0.048836038	1.00E+00	3.20E-10
0.052205732	1.00E+00	4.09E-10
0.055807932	1.00E+00	5.23E-10
0.059658659	1.00E+00	6.69E-10
0.06377513	1.00E+00	8.56E-10
0.068175607	1.00E+00	1.10E-09
0.072879725	1.00E+00	1.40E-09
0.0779084	1.00E+00	1.79E-09
0.083284071	1.00E+00	2.29E-09
0.089030723	1.00E+00	2.93E-09
0.095173832	1.00E+00	3.74E-09
0.101740787	1.00E+00	4.77E-09
0.108760969	1.00E+00	6.09E-09
0.116265439	1.00E+00	7.79E-09
0.124287749	1.00E+00	9.97E-09
0.132863606	1.00E+00	1.28E-08
0.142031183	1.00E+00	1.62E-08
0.151831332	1.00E+00	2.05E-08
0.15504731	1.00E+00	2.20E-08
0.157361445	1.00E+00	2.33E-08
0.158306562	1.00E+00	4.79E-09
0.158942972	1.00E+00	4.86E-09
0.161375768	1.00E+00	5.14E-09
0.162307697	1.00E+00	5.26E-09
0.173506928	1.00E+00	6.76E-09
0.185478907	1.00E+00	8.69E-09
0.198276951	1.00E+00	1.12E-08
0.211958073	1.00E+00	1.44E-08
0.22658319	1.00E+00	1.84E-08
0.242217413	1.00E+00	2.36E-08
0.258930416	1.00E+00	3.02E-08
0.276796616	1.00E+00	3.86E-08
0.295895553	1.00E+00	4.94E-08
0.316312386	1.00E+00	6.34E-08
0.338137939	1.00E+00	8.13E-08
0.361469424	1.00E+00	1.04E-07
0.386410855	1.00E+00	1.34E-07
0.413073211	1.00E+00	1.73E-07
0.441575168	1.00E+00	2.22E-07
0.472044014	1.00E+00	2.85E-07
0.504614919	1.00E+00	3.62E-07
0.539433277	1.00E+00	4.61E-07
0.576654381	1.00E+00	5.87E-07
0.616443294	1.00E+00	7.46E-07
0.658978058	1.00E+00	9.50E-07
0.704447428	1.00E+00	1.21E-06
0.75305431	1.00E+00	1.54E-06
0.805015275	1.00E+00	1.96E-06
0.860561065	1.00E+00	2.48E-06
0.864502273	1.00E+00	2.53E-06
0.878487058	1.00E+00	2.67E-06
0.89269385	1.00E+00	2.82E-06
0.893227666	1.00E+00	2.83E-06
0.893240537	1.00E+00	2.52E-06
0.907135331	1.00E+00	2.66E-06
0.921804947	1.00E+00	2.81E-06
0.93409781	1.00E+00	2.95E-06
0.934111885	1.00E+00	2.12E-06
0.936716129	1.00E+00	2.14E-06
0.951861804	1.00E+00	2.27E-06
0.967263762	1.00E+00	2.41E-06
0.982907338	1.00E+00	2.57E-06
0.998807682	1.00E+00	2.73E-06
1.014956653	1.00E+00	2.90E-06
1.031378943	1.00E+00	3.08E-06
1.048057822	1.00E+00	3.27E-06
1.06501048	1.00E+00	3.48E-06
1.072138916	1.00E+00	3.56E-06
1.07215746	1.00E+00	1.36E-06
1.082237101	1.00E+00	1.41E-06
1.09973744	1.00E+00	1.50E-06
1.117520867	1.00E+00	1.59E-06
1.135597567	1.00E+00	1.69E-06
1.15396787	1.00E+00	1.79E-06
1.172631659	1.00E+00	1.90E-06
1.191599789	1.00E+00	2.02E-06
1.210872262	1.00E+00	2.15E-06
1.230460803	1.00E+00	2.28E-06
1.250359284	1.00E+00	2.42E-06
1.2705824	1.00E+00	2.56E-06
1.29113286	1.00E+00	2.71E-06
1.312015984	1.00E+00	2.87E-06
1.333237267	1.00E+00	3.04E-06
1.354800921	1.00E+00	3.22E-06
1.37671423	1.00E+00	3.41E-06
1.398981738	1.00E+00	3.62E-06
1.421608029	1.00E+00	3.83E-06
1.444602781	1.00E+00	4.06E-06
1.467967685	1.00E+00	4.29E-06
1.491711245	1.00E+00	4.55E-06
1.515836938	1.00E+00	4.82E-06
1.540355755	1.00E+00	5.10E-06
1.565269649	1.00E+00	5.40E-06
1.590586315	1.00E+00	5.72E-06
1.616313845	1.00E+00	6.05E-06
1.642456398	1.00E+00	6.41E-06
1.669020275	1.00E+00	6.79E-06
1.696016591	1.00E+00	7.18E-06
1.723447674	1.00E+00	7.61E-06
1.751322886	1.00E+00	8.05E-06
1.779649582	1.00E+00	8.53E-06
1.808435378	1.00E+00	9.03E-06
1.837682723	1.00E+00	9.56E-06
1.867407725	1.00E+00	1.01E-05
1.897610462	1.00E+00	1.07E-05
1.928305244	1.00E+00	1.13E-05
1.95949203	1.00E+00	1.20E-05
1.991185975	1.00E+00	1.27E-05
2.02339355	1.00E+00	1.34E-05
2.056117854	1.00E+00	1.42E-05
2.089375665	1.00E+00	1.51E-05
2.123166975	1.00E+00	1.59E-05
2.157509693	1.00E+00	1.69E-05
2.192403863	1.00E+00	1.79E-05
2.227864661	1.00E+00	1.89E-05
2.263900124	1.00E+00	2.00E-05
2.300518442	1.00E+00	2.11E-05
2.337727965	1.00E+00	2.24E-05
2.375537217	1.00E+00	2.37E-05
2.41395961	1.00E+00	2.50E-05
2.453004525	1.00E+00	2.65E-05
2.492676581	1.00E+00	2.80E-05
2.532995546	1.00E+00	2.97E-05
2.57396677	1.00E+00	3.14E-05
2.61559526	1.00E+00	3.32E-05
2.657902748	1.00E+00	3.51E-05
2.700895143	1.00E+00	3.71E-05
2.744578031	1.00E+00	3.92E-05
2.788969197	1.00E+00	4.15E-05
2.834074731	1.00E+00	4.39E-05
2.879920464	1.00E+00	4.64E-05
2.926499955	1.00E+00	4.90E-05
2.973833242	1.00E+00	5.18E-05
3.021927131	1.00E+00	5.48E-05
3.070803343	1.00E+00	5.79E-05
3.120477409	1.00E+00	6.12E-05
3.170949418	1.00E+00	6.47E-05
3.222234928	1.00E+00	6.84E-05
3.274350306	1.00E+00	7.22E-05
3.327312788	1.00E+00	7.63E-05
3.381131335	1.00E+00	8.06E-05
3.435814724	1.00E+00	8.52E-05
3.491391206	1.00E+00	9.00E-05
3.547860924	1.00E+00	9.50E-05
3.605243568	1.00E+00	0.0001004
3.663549193	1.00E+00	0.000106
3.722810094	1.00E+00	0.0001119
3.761415006	1.00E+00	0.0001159
3.761643254	1.00E+00	0.0001112
3.783026727	1.00E+00	0.0001133
3.844209965	1.00E+00	0.0001197
3.906382925	1.00E+00	0.0001265
3.969570257	1.00E+00	0.0001336
4.033772023	1.00E+00	0.0001412
4.096345734	1.00E+00	0.0001488
4.096616442	1.00E+00	0.0001402
4.099013764	1.00E+00	0.0001405
4.165322797	1.00E+00	0.0001485
4.232685014	1.00E+00	0.000157
4.301142415	1.00E+00	0.000166
4.370710108	1.00E+00	0.0001755
4.441403423	1.00E+00	0.0001855
4.513237933	1.00E+00	0.0001961
4.58624644	1.00E+00	0.0002074
4.660429205	1.00E+00	0.0002192
4.686448686	1.00E+00	0.0002235
4.686803009	1.00E+00	0.0001932
4.735802714	1.00E+00	0.0002002
4.812402475	1.00E+00	0.0002115
4.890228221	1.00E+00	0.0002235
4.969337448	1.00E+00	0.0002362
5.04971102	1.00E+00	0.0002496
5.131388885	1.00E+00	0.0002637
5.214370431	1.00E+00	0.0002787
5.298720836	1.00E+00	0.0002945
5.38441828	1.00E+00	0.0003112
5.471508262	1.00E+00	0.0003289
5.560015248	1.00E+00	0.0003475
5.630336058	1.00E+00	0.0003629
5.630847488	1.00E+00	0.0002456
5.649938934	1.00E+00	0.0002484
5.741329888	1.00E+00	0.0002622
5.834188211	1.00E+00	0.0002767
5.84342744	1.00E+00	0.0002781
5.843978317	1.00E+00	9.90E-05
5.928540005	1.00E+00	0.0001037
6.024441799	1.00E+00	0.0001093
6.121864507	1.00E+00	0.0001151
6.220897559	1.00E+00	0.0001211
6.321510881	9.99E-01	0.0001275
6.423767629	9.99E-01	0.0001343
6.527668088	9.99E-01	0.0001414
6.633245411	9.99E-01	0.0001488
6.740534545	9.99E-01	0.0001567
6.849534543	9.99E-01	0.000165
6.960319777	9.99E-01	0.0001737
7.072891054	9.99E-01	0.0001828
7.187288042	9.99E-01	0.0001924
7.303552809	9.99E-01	0.0002023
7.421685593	9.99E-01	0.0002127
7.541729525	9.99E-01	0.0002237
7.663683117	9.99E-01	0.0002352
7.787639525	9.99E-01	0.0002473
7.913600184	9.99E-01	0.00026
8.041615588	9.99E-01	0.0002734
8.171685814	9.99E-01	0.0002874
8.303863259	9.99E-01	0.0003022
8.438146575	9.99E-01	0.0003175
8.574649524	9.99E-01	0.0003336
8.713313842	9.99E-01	0.0003505
8.854259657	9.99E-01	0.0003682
8.997489005	9.99E-01	0.0003868
9.14300042	9.99E-01	0.0004064
9.290858269	9.99E-01	0.0004269
9.4411319	9.99E-01	0.0004484
9.59382182	9.99E-01	0.0004711
9.749001352	9.99E-01	0.0004948
9.906749662	9.98E-01	0.0005196
10.06698875	9.98E-01	0.0005454
10.22979496	9.98E-01	0.0005723
10.39525095	9.98E-01	0.0006006
10.56335628	9.98E-01	0.0006302
10.73419913	9.98E-01	0.0006613
10.90787517	9.98E-01	0.0006939
11.08428995	9.98E-01	0.0007282
11.26353659	9.98E-01	0.000764
11.4457164	9.98E-01	0.0008017
11.63083043	9.98E-01	0.0008411
11.81898779	9.98E-01	0.0008825
12.01019093	9.98E-01	0.0009258
12.20443762	9.98E-01	0.000971
12.40178254	9.98E-01	0.001017
12.60237268	9.98E-01	0.001065
12.80621077	9.98E-01	0.001116
13.01333557	9.98E-01	0.001169
13.22381396	9.97E-01	0.001223
13.43770187	9.97E-01	0.001281
13.65504222	9.97E-01	0.00134
13.87590921	9.97E-01	0.001401
14.10034927	9.97E-01	0.001465
14.32840927	9.97E-01	0.001533
14.5601537	9.97E-01	0.001603
14.79564985	9.97E-01	0.001676
15.034968	9.97E-01	0.001751
15.27814405	9.97E-01	0.001831
15.93466761	9.97E-01	0.002052
15.95447197	9.97E-01	0.002058
15.97553185	9.97E-01	0.002066
15.9959663	9.97E-01	0.002074
16.01671381	9.97E-01	0.002083
16.03761687	9.97E-01	0.002091
16.05820848	9.97E-01	0.002099
16.07864035	9.97E-01	0.002107
16.09986017	9.97E-01	0.002116
16.12123669	9.97E-01	0.002127
16.14166965	9.97E-01	0.002133
16.16304573	9.97E-01	0.002142
16.18410668	9.97E-01	0.002149
16.20501077	9.97E-01	0.002156
16.22607299	9.97E-01	0.002165
16.24776279	9.97E-01	0.002172
16.26851153	9.97E-01	0.002178
16.28988693	9.97E-01	0.002186
16.3126771	9.97E-01	0.002193
16.32273676	9.97E-01	0.0022
16.33373841	9.97E-01	0.002203
16.34458466	9.97E-01	0.002206
16.35574308	9.97E-01	0.00221
16.36611736	9.97E-01	0.002212
16.37696341	9.97E-01	0.002218
16.38749459	9.97E-01	0.00222
16.39818247	9.97E-01	0.002223
16.40918401	9.97E-01	0.002227
16.42065702	9.97E-01	0.002231
16.43150364	9.97E-01	0.002235
16.44203315	9.97E-01	0.002237
16.45303685	9.97E-01	0.002239
16.46419522	9.96E-01	0.002244
16.47441204	9.96E-01	0.002247
16.48604444	9.96E-01	0.002251
16.49720374	9.96E-01	0.002254
16.50757587	9.96E-01	0.002259
16.51857947	9.96E-01	0.002261
16.53036692	9.96E-01	0.002265
16.54074108	9.96E-01	0.002269
16.55142878	9.96E-01	0.002273
16.5632167	9.96E-01	0.002278
16.57406198	9.96E-01	0.002282
16.58475064	9.96E-01	0.002286
16.59622396	9.96E-01	0.00229
16.6076976	9.96E-01	0.002295
16.61791515	9.96E-01	0.002299
16.62954595	9.96E-01	0.002303
16.64133375	9.96E-01	0.002307
16.65202216	9.96E-01	0.002311
16.66239512	9.96E-01	0.002315
16.67434169	9.96E-01	0.00232
16.68644464	9.96E-01	0.002324
16.69618822	9.96E-01	0.002328
16.70813378	9.96E-01	0.002333
16.7196094	9.96E-01	0.002338
16.73045281	9.96E-01	0.002341
16.74145498	9.96E-01	0.002344
16.75324356	9.96E-01	0.002349
16.76503289	9.96E-01	0.002354
16.77524981	9.96E-01	0.002358
16.78719515	9.96E-01	0.002361
16.79898225	9.96E-01	0.002365
16.81030041	9.96E-01	0.002369
16.82083048	9.96E-01	0.002371
16.83277457	9.96E-01	0.002375
16.84456399	9.96E-01	0.002378
16.85556556	9.96E-01	0.002383
16.8668821	9.96E-01	0.002385
16.87867111	9.96E-01	0.002388
16.89030173	9.96E-01	0.002391
16.90161889	9.96E-01	0.002393
16.91293508	9.96E-01	0.002396
16.92503811	9.96E-01	0.002399
16.93635561	9.96E-01	0.002402
16.94782958	9.96E-01	0.002405
16.95930287	9.96E-01	0.002407
16.9706198	9.96E-01	0.002409
16.98303587	9.96E-01	0.002412
16.99419582	9.96E-01	0.002415
17.00582763	9.96E-01	0.002418
17.01824389	9.96E-01	0.002421
17.02924668	9.96E-01	0.002424
17.04072042	9.96E-01	0.002428
17.0523527	9.96E-01	0.002429
17.06539841	9.96E-01	0.002433
17.07655636	9.96E-01	0.002437
17.08740155	9.96E-01	0.00244
17.09966132	9.96E-01	0.002442
17.11176392	9.96E-01	0.002445
17.12371101	9.96E-01	0.00245
17.13471329	9.96E-01	0.002452
17.14697229	9.96E-01	0.002456
17.15938897	9.96E-01	0.00246
17.17086283	9.96E-01	0.002464
17.18249492	9.96E-01	0.002466
17.19443848	9.96E-01	0.002472
17.20669954	9.96E-01	0.002476
17.21880113	9.96E-01	0.002479
17.23011994	9.96E-01	0.002478
17.24206508	9.96E-01	0.002481
17.2551098	9.96E-01	0.002481
17.26658462	9.96E-01	0.002485
17.27821437	9.96E-01	0.002487
17.29000447	9.96E-01	0.002491
17.30273549	9.96E-01	0.002496
17.31530873	9.96E-01	0.002499
17.32662647	9.96E-01	0.002503
17.33841244	9.96E-01	0.002507
17.35114445	9.96E-01	0.002511
17.36356201	9.96E-01	0.002514
17.37566373	9.96E-01	0.00252
17.38745313	9.96E-01	0.002523
17.39924144	9.96E-01	0.002526
17.41275749	9.96E-01	0.002533
17.42407569	9.96E-01	0.002537
17.43649245	9.96E-01	0.002543
17.44843823	9.96E-01	0.002548
17.46085532	9.96E-01	0.002554
17.47358561	9.96E-01	0.00256
17.48568834	9.96E-01	0.002566
17.4979486	9.96E-01	0.002577
17.51020876	9.96E-01	0.002586
17.52246877	9.96E-01	0.002591
17.5358273	9.96E-01	0.002587
17.54761656	9.96E-01	0.002579
17.55940427	9.96E-01	0.002577
17.57213675	9.96E-01	0.002577
17.58518204	9.96E-01	0.002579
17.59775462	9.96E-01	0.002584
17.60985743	9.96E-01	0.002587
17.62227496	9.96E-01	0.00259
17.63469247	9.96E-01	0.002594
17.6480519	9.96E-01	0.0026
17.65999761	9.96E-01	0.002603
17.67257164	9.96E-01	0.002609
17.68483059	9.96E-01	0.002612
17.69756379	9.96E-01	0.002617
17.71092255	9.96E-01	0.002621
17.72334119	9.96E-01	0.002626
17.73559966	9.96E-01	0.002629
17.74801738	9.96E-01	0.002635
17.76074763	9.96E-01	0.002638
17.77426568	9.96E-01	0.002643
17.78731178	9.96E-01	0.002647
17.79972794	9.96E-01	0.002652
17.81198742	9.96E-01	0.002655
17.82471995	9.96E-01	0.002662
17.83792238	9.96E-01	0.002663
17.85112382	9.96E-01	0.00267
17.86385575	9.96E-01	0.002675
17.87611612	9.96E-01	0.002678
17.88884761	9.96E-01	0.002682
17.9020496	9.96E-01	0.002687
17.91572413	9.96E-01	0.002691
17.92877138	9.96E-01	0.002698
17.94118596	9.96E-01	0.002702
17.95376074	9.96E-01	0.002707
17.96680619	9.96E-01	0.002711
17.97969591	9.96E-01	0.002715
17.99336924	9.96E-01	0.00272
18.00704509	9.96E-01	0.002726
18.01977524	9.96E-01	0.00273
18.03203559	9.96E-01	0.002735
18.04555228	9.96E-01	0.00274
18.05859737	9.96E-01	0.002744
18.07211441	9.96E-01	0.00275
18.0853193	9.96E-01	0.002754
18.09852235	9.96E-01	0.002759
18.11125258	9.96E-01	0.002763
18.12445645	9.96E-01	0.002768
18.13797147	9.96E-01	0.002775
18.15133393	9.96E-01	0.002781
18.16500618	9.96E-01	0.002783
18.17789677	9.96E-01	0.002789
18.19078432	9.96E-01	0.002794
18.20477271	9.96E-01	0.002798
18.21781887	9.96E-01	0.002803
18.23102047	9.96E-01	0.002809
18.24469494	9.96E-01	0.002814
18.25884169	9.96E-01	0.002821
18.27141615	9.96E-01	0.002826
18.2852484	9.96E-01	0.002832
18.29908	9.96E-01	0.002837
18.31181004	9.96E-01	0.002841
18.32564123	9.96E-01	0.002846
18.33947435	9.96E-01	0.002852
18.3528339	9.96E-01	0.002856
18.36666458	9.96E-01	0.002861
18.38002564	9.96E-01	0.002865
18.39354259	9.96E-01	0.002873
18.40706031	9.96E-01	0.002876
18.42073475	9.96E-01	0.002882
18.43472282	9.96E-01	0.002887
18.44871019	9.96E-01	0.002891
18.46238613	9.96E-01	0.002898
18.47590339	9.96E-01	0.002902
18.48989267	9.96E-01	0.002908
18.50340883	9.96E-01	0.002913
18.51692541	9.96E-01	0.002921
18.53107108	9.96E-01	0.002924
18.54474739	9.96E-01	0.002931
18.55904953	9.96E-01	0.002935
18.57319566	9.96E-01	0.00294
18.58655529	9.96E-01	0.002949
18.60070154	9.96E-01	0.002952
18.61469047	9.96E-01	0.002958
18.62867807	9.96E-01	0.002964
18.64235312	9.96E-01	0.002968
18.65618582	9.96E-01	0.002978
18.67064636	9.96E-01	0.00298
18.68510682	9.96E-01	0.002986
18.69878027	9.96E-01	0.002989
18.71292564	9.96E-01	0.002997
18.72754221	9.96E-01	0.003002
18.74121836	9.96E-01	0.003006
18.75552167	9.96E-01	0.003012
18.76935239	9.96E-01	0.00302
18.78381253	9.96E-01	0.003024
18.79795864	9.96E-01	0.003031
18.81194624	9.96E-01	0.003033
18.82672082	9.96E-01	0.00304
18.84102614	9.96E-01	0.003045
18.8551697	9.96E-01	0.00305
18.86963031	9.96E-01	0.003056
18.8842483	9.96E-01	0.003062
18.89823791	9.96E-01	0.003066
18.91285412	9.96E-01	0.003071
18.9273138	9.96E-01	0.003079
18.94130365	9.96E-01	0.003084
18.95623583	9.96E-01	0.00309
18.97006821	9.96E-01	0.003095
18.98531326	9.96E-01	0.0031
18.99993058	9.96E-01	0.003106
19.01392013	9.96E-01	0.003112
19.02885024	9.96E-01	0.003118
19.04394131	9.96E-01	0.003122
19.05824478	9.96E-01	0.003132
19.07270473	9.96E-01	0.003136
19.08763624	9.96E-01	0.003142
19.10241161	9.96E-01	0.003148
19.11702711	9.96E-01	0.003155
19.13148786	9.96E-01	0.003162
19.14610651	9.96E-01	0.003169
19.16119467	9.96E-01	0.003174
19.17612571	9.96E-01	0.003179
19.19074436	9.96E-01	0.003187
19.20551919	9.96E-01	0.003194
19.22060881	9.96E-01	0.0032
19.23585347	9.96E-01	0.003206
19.25031229	9.96E-01	0.003213
19.26555922	9.96E-01	0.003217
19.28065041	9.96E-01	0.003223
19.29542292	9.96E-01	0.00323
19.31051283	9.96E-01	0.003238
19.32528596	9.96E-01	0.003239
19.34084805	9.96E-01	0.003246
19.35546519	9.96E-01	0.003252
19.37087014	9.96E-01	0.003259
19.38579946	9.96E-01	0.003266
19.40104629	9.96E-01	0.003269
19.41660601	9.96E-01	0.003276
19.43153893	9.96E-01	0.003281
19.44662906	9.96E-01	0.00329
19.461874	9.96E-01	0.003296
19.47743356	9.96E-01	0.003301
19.49283719	9.96E-01	0.003306
19.50745486	9.96E-01	0.003312
19.52333029	9.96E-01	0.003317
19.53873272	9.96E-01	0.003323
19.55429519	9.96E-01	0.003329
19.56953958	9.96E-01	0.003334
19.58478611	9.96E-01	0.00334
19.60003162	9.96E-01	0.003345
19.61606435	9.96E-01	0.003354
19.63146741	9.96E-01	0.003355
19.64686978	9.96E-01	0.003365
19.66243042	9.96E-01	0.003369
19.67846237	9.96E-01	0.003375
19.69386664	9.96E-01	0.003384
19.70958645	9.96E-01	0.003388
19.72530312	9.96E-01	0.003394
19.7407054	9.96E-01	0.003402
19.75658196	9.96E-01	0.003405
19.77261335	9.96E-01	0.003416
19.78817491	9.96E-01	0.00342
19.80389069	9.96E-01	0.003428
19.81976452	9.96E-01	0.003432
19.83532743	9.96E-01	0.00344
19.85151553	9.96E-01	0.003447
19.86770461	9.96E-01	0.003453
19.88342265	9.96E-01	0.003461
19.89929653	9.96E-01	0.00347
19.91485668	9.96E-01	0.003474
19.93104674	9.96E-01	0.003483
19.947552	9.96E-01	0.003492
19.96342561	9.96E-01	0.003499
19.97961428	9.96E-01	0.003508
19.99517458	9.96E-01	0.003518
20.01152139	9.96E-01	0.003522
20.02802437	9.96E-01	0.00353
20.04389999	9.96E-01	0.003538
20.06071935	9.96E-01	0.003542
20.07596416	9.96E-01	0.003553
20.09278204	9.96E-01	0.003555
20.10897253	9.96E-01	0.003563
20.12563343	9.96E-01	0.003569
20.1418213	9.96E-01	0.003574
20.15832365	9.96E-01	0.00358
20.17435735	9.96E-01	0.003585
20.19039027	9.96E-01	0.003586
20.20767716	9.96E-01	0.00359
20.22418207	9.96E-01	0.003595
20.24068423	9.96E-01	0.003602
20.25719018	9.96E-01	0.003604
20.27369322	9.96E-01	0.003608
20.29051208	9.96E-01	0.003613
20.30622801	9.96E-01	0.003616
20.32336077	9.95E-01	0.00362
20.34017874	9.95E-01	0.003624
20.35668364	9.95E-01	0.00363
20.37365728	9.95E-01	0.003633
20.3896901	9.95E-01	0.003636
20.40697748	9.95E-01	0.003638
20.42348335	9.95E-01	0.003641
20.44092921	9.95E-01	0.003651
20.45774662	9.95E-01	0.003652
20.47425022	9.95E-01	0.003655
20.49169828	9.95E-01	0.003663
20.50820245	9.95E-01	0.003669
20.52564729	9.95E-01	0.00367
20.54215176	9.95E-01	0.003677
20.5592828	9.95E-01	0.003685
20.57610095	9.95E-01	0.003689
20.59339131	9.95E-01	0.003703
20.6103647	9.95E-01	0.003701
20.6274965	9.95E-01	0.003707
20.64510027	9.95E-01	0.003713
20.66207639	9.95E-01	0.003723
20.67983929	9.95E-01	0.003722
20.69634055	9.95E-01	0.003735
20.7139444	9.95E-01	0.003742
20.73139103	9.95E-01	0.003747
20.74821081	9.95E-01	0.003755
20.76581262	9.95E-01	0.003759
20.78310289	9.95E-01	0.003766
20.8005511	9.95E-01	0.003774
20.81815448	9.95E-01	0.003778
20.83607131	9.95E-01	0.003788
20.85320524	9.95E-01	0.00379
20.87096465	9.95E-01	0.003798
20.88841295	9.95E-01	0.003805
20.90585872	9.95E-01	0.003816
20.92361967	9.95E-01	0.003824
20.941379	9.95E-01	0.003828
20.95882836	9.95E-01	0.003836
20.97690307	9.95E-01	0.003843
20.99482056	9.95E-01	0.003849
21.01210984	9.95E-01	0.003851
21.02986995	9.95E-01	0.003868
21.04794596	9.95E-01	0.003871
21.06586336	9.95E-01	0.003882
21.08362485	9.95E-01	0.003891
21.10170005	9.95E-01	0.003902
21.11961919	9.95E-01	0.003895
21.13800845	9.95E-01	0.00391
21.15545505	9.95E-01	0.00391
21.17368622	9.95E-01	0.00392
21.19160472	9.95E-01	0.003933
21.20968056	9.95E-01	0.003938
21.22838337	9.95E-01	0.003943
21.2466167	9.95E-01	0.003948
21.26485221	9.95E-01	0.003951
21.2827683	9.95E-01	0.00396
21.30115744	9.95E-01	0.003968
21.31939141	9.95E-01	0.003982
21.33778149	9.95E-01	0.003984
21.35585384	9.95E-01	0.003994
21.3748744	9.95E-01	0.004001
21.39341943	9.95E-01	0.004014
21.41118314	9.95E-01	0.004022
21.42972828	9.95E-01	0.004022
21.44874713	9.95E-01	0.004036
21.46713812	9.95E-01	0.004042
21.48568355	9.95E-01	0.004054
21.50376125	9.95E-01	0.004062
21.52293422	9.95E-01	0.004069
21.54179705	9.95E-01	0.004074
21.56097043	9.95E-01	0.004073
21.5793629	9.95E-01	0.004081
21.59790717	9.95E-01	0.004091
21.61661149	9.95E-01	0.004103
21.6356314	9.95E-01	0.004111
21.65449191	9.95E-01	0.004122
21.67335124	9.95E-01	0.004121
21.69205747	9.95E-01	0.004133
21.71154882	9.95E-01	0.004139
21.73056483	9.95E-01	0.004148
21.74958367	9.95E-01	0.004161
21.76875813	9.95E-01	0.004164
21.78762183	9.95E-01	0.004171
21.80648373	9.95E-01	0.004182
21.82628509	9.95E-01	0.004182
21.84561819	9.95E-01	0.004197
21.86479276	9.95E-01	0.004195
21.88365724	9.95E-01	0.004208
21.90314633	9.95E-01	0.004216
21.92279421	9.95E-01	0.004245
21.94196864	9.95E-01	0.004234
21.96114553	9.95E-01	0.004246
21.98063265	9.95E-01	0.004257
22.00090786	9.95E-01	0.004263
22.01992983	9.95E-01	0.004268
22.03910225	9.95E-01	0.004281
22.05937955	9.95E-01	0.00429
22.07902574	9.95E-01	0.004308
22.09836034	9.95E-01	0.004304
22.11769332	9.95E-01	0.004341
22.13953874	9.95E-01	0.004335
22.15793003	9.95E-01	0.004344
22.17757768	9.95E-01	0.004354
22.19722443	9.95E-01	0.00438
22.21734397	9.95E-01	0.004399
22.23746013	9.95E-01	0.004413
22.25694946	9.95E-01	0.004426
22.27691328	9.95E-01	0.004441
22.29734603	9.95E-01	0.004451
22.31714941	9.95E-01	0.004462
22.33711276	9.95E-01	0.004475
22.35738601	9.95E-01	0.004487
22.37813232	9.95E-01	0.004497
22.39778009	9.95E-01	0.004509
22.41790018	9.95E-01	0.004518
22.4380199	9.95E-01	0.004529
22.45907894	9.95E-01	0.004541
22.47888548	9.95E-01	0.004549
22.49915977	9.95E-01	0.004556
22.5200638	9.95E-01	0.004567
22.54034281	9.95E-01	0.004573
22.56124547	9.95E-01	0.004582
22.58136431	9.95E-01	0.004593
22.60195582	9.95E-01	0.004602
22.62270051	9.95E-01	0.004607
22.64360737	9.95E-01	0.004615
22.66372429	9.95E-01	0.004624
22.68478595	9.95E-01	0.004629
22.70553333	9.95E-01	0.004639
22.72628121	9.95E-01	0.004648
22.74702947	9.95E-01	0.00465
22.76840521	9.95E-01	0.004662
22.78899592	9.95E-01	0.004669
22.80990087	9.95E-01	0.00468
22.83049106	9.95E-01	0.004687
22.85217987	9.95E-01	0.004696
22.8733993	9.95E-01	0.004701
22.89414661	9.95E-01	0.004712
22.91536361	9.95E-01	0.004723
22.93658178	9.95E-01	0.00473
22.9581156	9.95E-01	0.004739
22.97886363	9.95E-01	0.004749
23.00024228	9.95E-01	0.004761
23.02177617	9.95E-01	0.004767
23.04314912	9.95E-01	0.004778
23.06452747	9.95E-01	0.00479
23.08606159	9.95E-01	0.004802
23.10774794	9.95E-01	0.004814
23.12897022	9.95E-01	0.004829
23.15081511	9.95E-01	0.004847
23.17235048	9.95E-01	0.004862
23.19419498	9.95E-01	0.004882
23.21557207	9.95E-01	0.004897
23.23757657	9.95E-01	0.004919
23.25958356	9.95E-01	0.004933
23.28080162	9.95E-01	0.004951
23.30296505	9.95E-01	0.004968
23.32481088	9.95E-01	0.004984
23.34728684	9.95E-01	0.005
23.36897803	9.95E-01	0.005014
23.3908243	9.95E-01	0.005036
23.41298558	9.95E-01	0.005051
23.43514902	9.95E-01	0.005066
23.45746986	9.95E-01	0.00508
23.47931744	9.95E-01	0.005092
23.50226606	9.95E-01	0.005106
23.52442485	9.95E-01	0.005116
23.54627219	9.95E-01	0.005117
23.56890836	9.95E-01	0.005123
23.59122448	9.95E-01	0.005127
23.61354692	9.95E-01	0.005122
23.6361775	9.95E-01	0.00512
23.65928492	9.95E-01	0.005119
23.68128859	9.95E-01	0.005117
23.70376375	9.95E-01	0.005118
23.7268719	9.95E-01	0.005121
23.74918804	9.95E-01	0.005126
23.77229372	9.95E-01	0.005131
23.79524345	9.95E-01	0.005139
23.81803162	9.95E-01	0.005149
23.84051048	9.95E-01	0.00515
23.86361515	9.95E-01	0.005156
23.88687509	9.95E-01	0.005162
23.90966859	9.95E-01	0.005158
23.93293065	9.95E-01	0.005147
23.95587698	9.95E-01	0.005138
23.97898329	9.95E-01	0.005126
24.00239908	9.95E-01	0.005118
24.02566044	9.95E-01	0.005108
24.04876635	9.95E-01	0.005103
24.07187468	9.95E-01	0.0051
24.09576268	9.95E-01	0.005096
24.11918199	9.95E-01	0.005098
24.14275969	9.95E-01	0.005099
24.16586539	9.95E-01	0.005097
24.18975633	9.95E-01	0.0051
24.2134912	9.95E-01	0.005106
24.2367515	9.95E-01	0.005108
24.26064045	9.95E-01	0.005113
24.28406281	9.95E-01	0.005118
24.30826916	9.95E-01	0.005123
24.33215611	9.95E-01	0.005131
24.35620488	9.95E-01	0.005141
24.37962526	9.95E-01	0.005142
24.40367193	9.95E-01	0.005147
24.42803561	9.95E-01	0.00516
24.45239977	9.95E-01	0.005164
24.47566253	9.95E-01	0.005173
24.50049463	9.95E-01	0.00518
24.52485807	9.95E-01	0.00519
24.54890545	9.95E-01	0.005196
24.5732679	9.95E-01	0.005203
24.59762995	9.95E-01	0.005215
24.62230442	9.95E-01	0.005222
24.64651396	9.95E-01	0.005231
24.67071716	9.95E-01	0.005244
24.6953959	9.95E-01	0.00525
24.72038529	9.95E-01	0.00526
24.74474868	9.95E-01	0.005267
24.76958077	9.95E-01	0.005279
24.79598512	9.95E-01	0.005289
24.82010032	9.95E-01	0.005299
24.84509391	9.95E-01	0.005303
24.86976871	9.95E-01	0.005316
24.89539236	9.95E-01	0.005325
24.91928067	9.95E-01	0.005335
24.9452173	9.95E-01	0.00535
24.97051896	9.94E-01	0.005363
24.99535294	9.94E-01	0.005372
25.02034745	9.94E-01	0.005378
25.04596373	9.94E-01	0.00539
25.07111538	9.94E-01	0.0054
25.09594676	9.94E-01	0.005411
25.1228228	9.94E-01	0.005423
25.14687434	9.94E-01	0.005433
25.17343539	9.94E-01	0.005442
25.19842899	9.94E-01	0.005454
25.22404703	9.94E-01	0.005467
25.24997948	9.94E-01	0.005482
25.27544486	9.94E-01	0.005491
25.30121982	9.94E-01	0.005503
25.32794251	9.94E-01	0.00551
25.35246117	9.94E-01	0.00552
25.37949489	9.94E-01	0.005531
25.40511299	9.94E-01	0.005546
25.43104889	9.94E-01	0.00556
25.45713713	9.94E-01	0.005575
25.48386036	9.94E-01	0.005585
25.50916482	9.94E-01	0.005599
25.535887	9.94E-01	0.005609
25.56260725	9.94E-01	0.005627
25.58838001	9.94E-01	0.005638
25.61510444	9.94E-01	0.005649
25.64166732	9.94E-01	0.005662
25.66775924	9.94E-01	0.005677
25.69494803	9.94E-01	0.005691
25.72104184	9.94E-01	0.005704
25.74838647	9.94E-01	0.005718
25.77432106	9.94E-01	0.005728
25.8019832	9.94E-01	0.005746
25.82886533	9.94E-01	0.005761
25.85495699	9.94E-01	0.005777
25.88261967	9.94E-01	0.005792
25.90965393	9.94E-01	0.005805
25.93668503	9.94E-01	0.005819
25.96325063	9.94E-01	0.005836
25.99122738	9.94E-01	0.005842
26.01825979	9.94E-01	0.005859
26.04545244	9.94E-01	0.005866
26.07280069	9.94E-01	0.005879
26.10046468	9.94E-01	0.005899
26.12812687	9.94E-01	0.005914
26.15547805	9.94E-01	0.005919
26.18267091	9.94E-01	0.005938
26.21096209	9.94E-01	0.005954
26.23846485	9.94E-01	0.005966
26.26644274	9.94E-01	0.005972
26.29395059	9.94E-01	0.005987
26.32192964	9.94E-01	0.005995
26.34974989	9.94E-01	0.006009
26.37851013	9.94E-01	0.006024
26.40585964	9.94E-01	0.006034
26.43415076	9.94E-01	0.006042
26.46275673	9.94E-01	0.006057
26.49089261	9.94E-01	0.006073
26.51918481	9.94E-01	0.006077
26.54747497	9.94E-01	0.006082
26.57576859	9.94E-01	0.006099
26.60453363	9.94E-01	0.006113
26.63297768	9.94E-01	0.006128
26.66174635	9.94E-01	0.006135
27.18749945	9.94E-01	0.00634
27.21783776	9.94E-01	0.006347
27.2478546	9.94E-01	0.006365
27.27756562	9.94E-01	0.006373
27.30790088	9.94E-01	0.006387
27.33776115	9.94E-01	0.006402
27.36778345	9.94E-01	0.006416
27.3984288	9.94E-01	0.006426
27.42845108	9.94E-01	0.006441
27.45878856	9.94E-01	0.006452
27.48959551	9.94E-01	0.006466
27.51961644	9.94E-01	0.006473
27.54947651	9.94E-01	0.006492
27.5798125	9.94E-01	0.006504
27.61046133	9.94E-01	0.006519
27.64142486	9.94E-01	0.006531
27.67223556	9.94E-01	0.006547
27.7035112	9.94E-01	0.006559
27.73384634	9.94E-01	0.006573
27.76528636	9.94E-01	0.006585
27.79624932	9.94E-01	0.006597
27.82752501	9.94E-01	0.00661
27.8588023	9.94E-01	0.006624
27.88992411	9.94E-01	0.006637
27.92183238	9.94E-01	0.006649
27.95279274	9.94E-01	0.006665
27.9842324	9.94E-01	0.006678
28.01613538	9.94E-01	0.00669
28.04757183	9.94E-01	0.006704
28.07995017	9.94E-01	0.006718
28.11186154	9.94E-01	0.006735
28.14360913	9.94E-01	0.006744
28.17551816	9.94E-01	0.006758
28.20742262	9.94E-01	0.00677
28.23995902	9.94E-01	0.006783
28.27155193	9.94E-01	0.006796
28.30424299	9.94E-01	0.006809
28.3364657	9.94E-01	0.006821
28.3683724	9.94E-01	0.006833
28.40153512	9.94E-01	0.006846
28.43360165	9.94E-01	0.006858
28.46644654	9.94E-01	0.006871
28.49914466	9.94E-01	0.006883
28.53199021	9.94E-01	0.006899
28.56499712	9.94E-01	0.006912
28.59769129	9.94E-01	0.006924
28.63101576	9.94E-01	0.006936
28.66402037	9.94E-01	0.00695
28.6971875	9.94E-01	0.006962
28.73050471	9.94E-01	0.006973
28.76367249	9.94E-01	0.006985
28.79715104	9.94E-01	0.006994
28.83031206	9.94E-01	0.007007
28.86410728	9.94E-01	0.007021
28.89821084	9.94E-01	0.007031
28.93153764	9.94E-01	0.007043
28.96532712	9.94E-01	0.007058
28.99896499	9.94E-01	0.007068
29.03323179	9.94E-01	0.007081
29.06717758	9.94E-01	0.007095
29.10144193	9.94E-01	0.007106
29.13570499	9.94E-01	0.00712
29.16965763	9.94E-01	0.007131
29.2040816	9.94E-01	0.007144
29.23834558	9.94E-01	0.007157
29.27308402	9.94E-01	0.007171
29.30797438	9.94E-01	0.007181
29.34239939	9.94E-01	0.007195
29.37713507	9.94E-01	0.00721
29.41186937	9.94E-01	0.007225
29.44707756	9.94E-01	0.007235
29.48228602	9.94E-01	0.007252
29.51670737	9.94E-01	0.007267
29.55238552	9.94E-01	0.007281
29.58774755	9.94E-01	0.007299
29.62264223	9.94E-01	0.007309
29.65847777	9.94E-01	0.007326
29.69337602	9.94E-01	0.007341
29.72952558	9.94E-01	0.007356
29.76504866	9.94E-01	0.007373
29.80087879	9.94E-01	0.007385
29.8367163	9.94E-01	0.007402
29.87287043	9.94E-01	0.00742
29.90870824	9.94E-01	0.007434
29.94485635	9.94E-01	0.007451
29.98116444	9.93E-01	0.007466
30.0171537	9.93E-01	0.007486
30.0540964	9.93E-01	0.007503
30.08993244	9.93E-01	0.007516
30.12702534	9.93E-01	0.007541
30.16285949	9.93E-01	0.007555
30.20074311	9.93E-01	0.007573
30.23704792	9.93E-01	0.007588
30.27351404	9.93E-01	0.007611
30.31107604	9.93E-01	0.007626
30.34817419	9.93E-01	0.007646
30.38526645	9.93E-01	0.007665
30.42267346	9.93E-01	0.007686
30.45961141	9.93E-01	0.007705
30.49717179	9.93E-01	0.007723
30.53490012	9.93E-01	0.007748
30.5724656	9.93E-01	0.007766
30.61034278	9.93E-01	0.007785
30.6475942	9.93E-01	0.007808
30.68641739	9.93E-01	0.007828
30.72382385	9.93E-01	0.00785
30.76217647	9.93E-01	0.007871
30.80037245	9.93E-01	0.007887
30.83856368	9.93E-01	0.007907
30.87691125	9.93E-01	0.007925
30.91573977	9.93E-01	0.007942
30.95408644	9.93E-01	0.007962
30.99275303	9.93E-01	0.007981
31.03141537	9.93E-01	0.007996
31.07055582	9.93E-01	0.008015
31.10938142	9.93E-01	0.008035
31.14898501	9.93E-01	0.00805
31.18781084	9.93E-01	0.00807
31.22726056	9.93E-01	0.008086
31.26608477	9.93E-01	0.008102
31.30585145	9.93E-01	0.008118
31.3459334	9.93E-01	0.008133
31.38506933	9.93E-01	0.008147
31.42514742	9.93E-01	0.008164
31.46475303	9.93E-01	0.008179
31.50483487	9.93E-01	0.008192
31.54476211	9.93E-01	0.00821
31.5849999	9.93E-01	0.008224
31.62538888	9.93E-01	0.00824
31.66578422	9.93E-01	0.008258
31.70617749	9.93E-01	0.008277
31.74688529	9.93E-01	0.008291
31.78759996	9.93E-01	0.008309
31.82783089	9.93E-01	0.008319
31.86964651	9.93E-01	0.008336
31.91003624	9.93E-01	0.008352
31.95122014	9.93E-01	0.008369
31.99256001	9.93E-01	0.008381
32.03404838	9.93E-01	0.008401
32.07522958	9.93E-01	0.008418
32.11704094	9.93E-01	0.008434
32.15837755	9.93E-01	0.008456
32.20034756	9.93E-01	0.008473
32.24262851	9.93E-01	0.008491
32.28380165	9.93E-01	0.008512
32.3267152	9.93E-01	0.008527
32.36836547	9.93E-01	0.008543
32.41064851	9.93E-01	0.008559
32.45292324	9.93E-01	0.008578
32.49583645	9.93E-01	0.008595
32.53812036	9.93E-01	0.00861
32.58102816	9.93E-01	0.008631
32.6240922	9.93E-01	0.008647
32.6670034	9.93E-01	0.008656
32.71053681	9.93E-01	0.00868
32.75297499	9.93E-01	0.008697
32.79683343	9.93E-01	0.008715
32.84005268	9.93E-01	0.008729
32.8837523	9.93E-01	0.008749
32.92713113	9.93E-01	0.008763
32.97114187	9.93E-01	0.008781
33.01546385	9.93E-01	0.008793
33.05884731	9.93E-01	0.008805
33.10300781	9.93E-01	0.00882
33.14686107	9.93E-01	0.008837
33.191817	9.93E-01	0.00885
33.2367703	9.93E-01	0.008861
33.28109506	9.93E-01	0.008878
33.32557403	9.93E-01	0.00889
33.37052235	9.93E-01	0.008908
33.41532189	9.93E-01	0.00892
33.460278	9.93E-01	0.008935
33.50569932	9.93E-01	0.00895
33.55112609	9.93E-01	0.008965
33.59654875	9.93E-01	0.008983
33.64213108	9.93E-01	0.009001
33.68770912	9.93E-01	0.009012
33.73408086	9.93E-01	0.00903
33.77966006	9.93E-01	0.009045
33.82587016	9.93E-01	0.009064
33.87160536	9.93E-01	0.009079
33.91813249	9.93E-01	0.009096
33.96481554	9.93E-01	0.009109
34.01117941	9.93E-01	0.009132
34.05785715	9.93E-01	0.009154
34.10470072	9.93E-01	0.009167
34.15185206	9.93E-01	0.009197
34.19885095	9.93E-01	0.009215
34.24647128	9.93E-01	0.009242
34.29346554	9.93E-01	0.009258
34.34077919	9.93E-01	0.009282
34.38871957	9.93E-01	0.009302
34.43634443	9.93E-01	0.009319
34.48412056	9.93E-01	0.009335
34.5323757	9.93E-01	0.009355
34.58031276	9.93E-01	0.009367
34.62888604	9.93E-01	0.009391
34.67698492	9.93E-01	0.009406
34.72554829	9.93E-01	0.009422
34.77458925	9.93E-01	0.009439
34.8234657	9.93E-01	0.009449
34.87219529	9.93E-01	0.009474
34.92138604	9.93E-01	0.009485
34.97027188	9.93E-01	0.009507
35.01993775	9.93E-01	0.00953
35.06960601	9.93E-01	0.009546
35.11927609	9.93E-01	0.009564
35.16925666	9.93E-01	0.00958
35.2193997	9.93E-01	0.009592
35.26859232	9.93E-01	0.009606
35.31936132	9.93E-01	0.009623
35.36949973	9.93E-01	0.009624
35.42011461	9.93E-01	0.009638
35.47103695	9.93E-01	0.009657
35.52133243	9.93E-01	0.009665
35.57257704	9.93E-01	0.009683
35.6241335	9.93E-01	0.009697
35.67504916	9.93E-01	0.009708
35.72614146	9.93E-01	0.009717
35.77816499	9.93E-01	0.009733
35.82987428	9.93E-01	0.00975
35.88111018	9.93E-01	0.009763
35.93376339	9.93E-01	0.009772
35.98626844	9.93E-01	0.009778
36.03781674	9.93E-01	0.009792
36.09031136	9.93E-01	0.009807
36.14328577	9.93E-01	0.009817
36.19562336	9.93E-01	0.00982
36.24858966	9.93E-01	0.009826
36.30172183	9.93E-01	0.009844
36.35499933	9.93E-01	0.009857
36.40859381	9.93E-01	0.00986
36.46156375	9.93E-01	0.009875
36.51548388	9.93E-01	0.009895
36.56955294	9.93E-01	0.009903
36.62314407	9.93E-01	0.009929
36.678162	9.93E-01	0.009947
36.73190891	9.93E-01	0.009969
36.78661036	9.93E-01	0.01001
36.84099329	9.93E-01	0.01003
36.89600938	9.93E-01	0.01005
36.95085965	9.93E-01	0.01008
37.00602788	9.93E-01	0.0101
37.0616713	9.93E-01	0.01012
37.11714894	9.93E-01	0.01014
37.17232482	9.93E-01	0.01016
37.22874931	9.93E-01	0.01018
37.28439228	9.93E-01	0.0102
37.34050547	9.93E-01	0.01021
37.39692318	9.93E-01	0.01024
37.45319483	9.93E-01	0.01025
37.51040779	9.93E-01	0.01028
37.56652089	9.93E-01	0.01029
37.62404662	9.93E-01	0.01031
37.68110744	9.93E-01	0.01034
37.73831864	9.93E-01	0.01035
37.79584209	9.93E-01	0.01037
37.85367986	9.93E-01	0.01038
37.91137032	9.93E-01	0.01039
37.96967877	9.93E-01	0.01041
38.02784026	9.93E-01	0.01042
38.0863089	9.93E-01	0.01043
38.14461726	9.93E-01	0.01044
38.20386963	9.93E-01	0.01046
38.26250336	9.93E-01	0.01047
38.32160163	9.93E-01	0.01048
38.38053818	9.93E-01	0.0105
38.44074086	9.93E-01	0.01051
38.49984147	9.93E-01	0.01052
38.56034735	9.93E-01	0.01053
38.62008126	9.93E-01	0.01055
38.6801212	9.93E-01	0.01057
38.74095339	9.93E-01	0.01059
38.80129717	9.93E-01	0.01061
38.86213378	9.93E-01	0.01063
38.92327143	9.93E-01	0.01065
38.98441787	9.93E-01	0.01065
39.04570754	9.93E-01	0.01066
39.10764665	9.93E-01	0.01067
39.16941134	9.93E-01	0.01069
39.23118522	9.93E-01	0.0107
39.29357766	9.93E-01	0.0107
39.35519444	9.93E-01	0.0107
39.41838331	9.93E-01	0.01071
39.48093305	9.93E-01	0.01072
39.54395908	9.93E-01	0.01073
39.60714871	9.93E-01	0.01074
39.67033751	9.93E-01	0.01075
39.73399567	9.93E-01	0.01076
39.79764129	9.93E-01	0.01077
39.86209349	9.93E-01	0.01077
39.92575188	9.93E-01	0.01078
39.99019437	9.93E-01	0.01079
40.05510404	9.93E-01	0.0108
40.12001703	9.93E-01	0.01081
40.18508867	9.93E-01	0.01083
40.25031946	9.93E-01	0.01083
40.31508066	9.93E-01	0.01084
40.38124744	9.93E-01	0.01084
40.44710394	9.93E-01	0.01086
40.51328151	9.93E-01	0.01086
40.57960958	9.93E-01	0.01091
40.64592865	9.93E-01	0.01089
40.7125718	9.93E-01	0.01091
40.77952774	9.93E-01	0.01093
40.84695997	9.93E-01	0.01095
40.91423751	9.93E-01	0.01095
40.98181833	9.92E-01	0.01096
41.05019361	9.92E-01	0.01097
41.11762466	9.92E-01	0.01099
41.18598906	9.92E-01	0.011
41.25499299	9.92E-01	0.01101
41.32320929	9.92E-01	0.01103
41.39252217	9.92E-01	0.01106
41.46136081	9.92E-01	0.01106
41.53083224	9.92E-01	0.01107
41.60094168	9.92E-01	0.0111
41.67057391	9.92E-01	0.01112
41.74083313	9.92E-01	0.01114
41.81076565	9.92E-01	0.01115
41.88196569	9.92E-01	0.01118
41.95238651	9.92E-01	0.01121
42.0237425	9.92E-01	0.01122
42.09494144	9.92E-01	0.01126
42.16676927	9.92E-01	0.01128
42.2384541	9.92E-01	0.01131
42.31074406	9.92E-01	0.01133
42.38305006	9.92E-01	0.01136
42.45551639	9.92E-01	0.01137
42.52843519	9.92E-01	0.01138
42.60120966	9.92E-01	0.0114
42.67461552	9.92E-01	0.0114
42.74817162	9.92E-01	0.01141
42.82204088	9.92E-01	0.01147
42.89638851	9.92E-01	0.01149
42.97026498	9.92E-01	0.01148
43.04523326	9.92E-01	0.01148
43.11989369	9.92E-01	0.01152
43.19518979	9.92E-01	0.01153
43.27016034	9.92E-01	0.01155
43.34622509	9.92E-01	0.01157
43.42214712	9.92E-01	0.01159
43.49822874	9.92E-01	0.0116
43.57460807	9.92E-01	0.01161
43.65114853	9.92E-01	0.01167
43.7283285	9.92E-01	0.01168
43.80534851	9.92E-01	0.01169
43.88315288	9.92E-01	0.01173
43.96079766	9.92E-01	0.01175
44.03890541	9.92E-01	0.01179
44.11718133	9.92E-01	0.01182
44.19624015	9.92E-01	0.01182
44.2749978	9.92E-01	0.01185
44.35405252	9.92E-01	0.01186
44.4337404	9.92E-01	0.01188
44.51342745	9.92E-01	0.0119
44.59311213	9.92E-01	0.01191
44.67374259	9.92E-01	0.01194
44.75469747	9.92E-01	0.01195
44.83563822	9.92E-01	0.01197
44.91705127	9.92E-01	0.01199
44.99784593	9.92E-01	0.01202
45.07989883	9.92E-01	0.01204
45.16177444	9.92E-01	0.01207
45.24460845	9.92E-01	0.0121
45.32728287	9.92E-01	0.01211
45.4099606	9.92E-01	0.01216
45.49342459	9.92E-01	0.01216
45.57719596	9.91E-01	0.0122
45.66082237	9.91E-01	0.01224
45.74553263	9.91E-01	0.01227
45.83057474	9.91E-01	0.01229
45.91843348	9.91E-01	0.01234
45.99388034	9.91E-01	0.01236
46.07866749	9.91E-01	0.01241
46.16629473	9.91E-01	0.01242
46.25391076	9.91E-01	0.0125
46.34057821	9.91E-01	0.01253
46.4263019	9.91E-01	0.01256
46.51110444	9.91E-01	0.01257
46.60059591	9.91E-01	0.01261
46.68728519	9.91E-01	0.01264
46.77865674	9.91E-01	0.01266
46.86533719	9.91E-01	0.01267
46.9538865	9.91E-01	0.0127
47.04150375	9.91E-01	0.01268
47.13288867	9.91E-01	0.01276
47.22144565	9.91E-01	0.01274
47.31094986	9.91E-01	0.01281
47.40233448	9.91E-01	0.01279
47.48996134	9.91E-01	0.01276
47.58605734	9.91E-01	0.01283
47.67460372	9.91E-01	0.01287
47.76881711	9.91E-01	0.01287
47.85832269	9.91E-01	0.01287
47.94970348	9.91E-01	0.01287
48.04580899	9.91E-01	0.01288
48.13906669	9.91E-01	0.01292
48.2323306	9.91E-01	0.01289
48.3237151	9.91E-01	0.01295
48.41794237	9.91E-01	0.01296
48.51686624	9.91E-01	0.01296
48.61013363	9.91E-01	0.01298
48.70622853	9.91E-01	0.01301
48.80043739	9.91E-01	0.01301
48.89558989	9.91E-01	0.01299
48.99450225	9.91E-01	0.01301
49.09154119	9.91E-01	0.01307
49.18953126	9.91E-01	0.01308
49.28374006	9.91E-01	0.01309
49.3845454	9.91E-01	0.01312
49.48347285	9.91E-01	0.01315
49.58333283	9.91E-01	0.01311
49.68319848	9.91E-01	0.01316
49.780229	9.91E-01	0.01319
49.88386049	9.91E-01	0.01321
49.98278541	9.91E-01	0.01316
50.08358036	9.91E-01	0.01324
50.18439669	9.91E-01	0.01327
50.28521182	9.91E-01	0.01325
50.38694475	9.91E-01	0.01332
50.49059115	9.91E-01	0.01334
50.59516036	9.91E-01	0.01335
50.6950223	9.91E-01	0.01336
50.80241842	9.91E-01	0.01345
50.90510743	9.91E-01	0.01342
51.01251489	9.91E-01	0.01339
51.1152129	9.91E-01	0.01347
51.21978526	9.91E-01	0.01346
51.32812241	9.91E-01	0.01347
51.43175502	9.91E-01	0.01343
51.54197732	9.91E-01	0.0135
51.64748736	9.91E-01	0.01353
51.75772974	9.91E-01	0.0135
51.86419095	9.91E-01	0.01351
51.97252893	9.91E-01	0.01352
52.07992029	9.91E-01	0.01354
52.19015097	9.91E-01	0.01351
52.30226134	9.91E-01	0.01357
52.4143669	9.91E-01	0.01353
52.5227261	9.91E-01	0.01352
52.63200347	9.91E-01	0.01356
52.74505733	9.91E-01	0.01361
52.8618884	9.91E-01	0.01356
52.97398643	9.91E-01	0.01355
53.08515161	9.91E-01	0.01353
53.19915829	9.91E-01	0.01356
53.31315134	9.91E-01	0.01355
53.42903845	9.91E-01	0.01355
53.54302552	9.91E-01	0.01357
53.65984557	9.91E-01	0.01359
53.77384105	9.91E-01	0.01361
53.89443594	9.91E-01	0.01353
54.01126665	9.91E-01	0.01357
54.12808509	9.91E-01	0.01349
54.24678656	9.91E-01	0.01353
54.36548533	9.91E-01	0.01354
54.48420187	9.91E-01	0.01351
54.60478477	9.90E-01	0.01351
54.72631326	9.90E-01	0.01347
54.84690379	9.90E-01	0.01347
54.96844125	9.90E-01	0.01345
55.08998	9.90E-01	0.01347
55.21434415	9.90E-01	0.01349
55.33492402	9.90E-01	0.01345
55.46022413	9.90E-01	0.01344
55.58551979	9.90E-01	0.01345
55.70988084	9.90E-01	0.0134
55.83236061	9.90E-01	0.01342
55.96048192	9.90E-01	0.01338
56.08860896	9.90E-01	0.01336
56.21673779	9.90E-01	0.01337
56.34110042	9.90E-01	0.01341
56.47298471	9.90E-01	0.01342
56.59923423	9.90E-01	0.01341
56.73020254	9.90E-01	0.01339
56.85737137	9.90E-01	0.0134
56.99021954	9.90E-01	0.01339
57.12305831	9.90E-01	0.01336
57.25212871	9.90E-01	0.01339
57.38778646	9.89E-01	0.01342
57.51875112	9.89E-01	0.01343
57.65157486	9.89E-01	0.01341
57.78630626	9.89E-01	0.01343
57.92196653	9.89E-01	0.01345
58.05856432	9.89E-01	0.01346
58.19233887	9.89E-01	0.01345
58.3308476	9.89E-01	0.0135
58.4674529	9.89E-01	0.01352
58.60783004	9.89E-01	0.0135
58.74348269	9.89E-01	0.01358
58.88574939	9.89E-01	0.01356
59.02612137	9.89E-01	0.01357
59.16366307	9.89E-01	0.0136
59.30874079	9.89E-01	0.01363
59.45102507	9.89E-01	0.01364
59.59233231	9.89E-01	0.01366
59.73742132	9.89E-01	0.01373
59.87873566	9.89E-01	0.01372
60.02664838	9.88E-01	0.01374
60.16889805	9.88E-01	0.01375
60.31868974	9.88E-01	0.01378
60.46377343	9.88E-01	0.01379
60.61169017	9.88E-01	0.01379
60.76149374	9.88E-01	0.01382
60.91129148	9.88E-01	0.01385
61.06014557	9.88E-01	0.01382
61.21181421	9.88E-01	0.0138
61.36350925	9.88E-01	0.01386
61.51235655	9.88E-01	0.01386
61.66873672	9.88E-01	0.01382
61.82326266	9.88E-01	0.01384
61.97494009	9.88E-01	0.01382
62.13225179	9.88E-01	0.01387
62.28770408	9.88E-01	0.01384
62.44220646	9.88E-01	0.01377
62.60427313	9.88E-01	0.0138
62.761591	9.88E-01	0.01379
62.91705129	9.88E-01	0.01379
63.07909206	9.88E-01	0.01378
63.24300198	9.88E-01	0.01376
63.40128081	9.87E-01	0.01375
63.56520946	9.87E-01	0.01373
63.73008628	9.87E-01	0.01373
63.89213268	9.87E-01	0.01371
64.0579508	9.87E-01	0.01372
64.22187056	9.87E-01	0.01372
64.38957406	9.87E-01	0.0137
64.55818933	9.87E-01	0.01371
64.7268452	9.87E-01	0.01368
64.89546742	9.87E-01	0.01365
65.06599491	9.87E-01	0.01368
65.23745529	9.87E-01	0.01364
65.40892448	9.87E-01	0.01363
65.58511359	9.87E-01	0.01364
65.75374433	9.87E-01	0.0136
65.9327452	9.87E-01	0.01359
66.10796426	9.86E-01	0.01356
66.28510937	9.86E-01	0.01355
66.46128247	9.86E-01	0.01355
66.6402571	9.86E-01	0.01351
66.81926193	9.86E-01	0.01348
67.00299671	9.86E-01	0.01343
67.18104582	9.86E-01	0.01341
67.36571684	9.86E-01	0.01339
67.54941846	9.86E-01	0.01337
67.7340507	9.86E-01	0.01333
67.92341605	9.86E-01	0.0133
68.10901618	9.86E-01	0.01326
68.30500239	9.85E-01	0.0132
68.50000028	9.85E-01	0.01318
68.70631735	9.85E-01	0.0131
68.92771208	9.85E-01	0.01306
69.05209596	9.85E-01	0.01301
69.24616739	9.85E-01	0.01298
69.43927144	9.85E-01	0.01295
69.63431593	9.85E-01	0.0129
69.8321505	9.85E-01	0.01286
70.02905545	9.84E-01	0.01282
70.22782977	9.84E-01	0.01278
70.42661556	9.84E-01	0.01273
70.62729433	9.84E-01	0.01269
70.82701595	9.84E-01	0.01265
71.03145138	9.84E-01	0.01261
71.2358834	9.84E-01	0.01257
71.44034288	9.84E-01	0.01253
71.64664186	9.83E-01	0.01249
71.85392754	9.83E-01	0.01245
72.06497124	9.83E-01	0.01241
72.27317137	9.83E-01	0.01238
72.4888925	9.83E-01	0.01233
72.69712307	9.83E-01	0.0123
72.91191291	9.82E-01	0.01226
73.12767379	9.82E-01	0.01222
73.34432493	9.82E-01	0.01218
73.55916476	9.82E-01	0.01214
73.77772541	9.82E-01	0.0121
74.00098962	9.82E-01	0.01206
74.21956612	9.81E-01	0.01202
74.44377327	9.81E-01	0.01198
74.66520203	9.81E-01	0.01194
74.89315433	9.81E-01	0.01191
75.1202269	9.81E-01	0.01188
75.35010022	9.80E-01	0.01185
75.57811344	9.80E-01	0.01182
75.81080197	9.80E-01	0.01179
76.04161619	9.80E-01	0.01177
76.27524795	9.80E-01	0.01175
76.51079192	9.79E-01	0.01173
76.74912545	9.79E-01	0.01171
76.98655809	9.79E-01	0.0117
77.22772524	9.79E-01	0.01169
77.46890746	9.78E-01	0.01169
77.71199051	9.78E-01	0.01168
77.95503532	9.78E-01	0.01168
78.20093692	9.78E-01	0.01169
78.44680638	9.77E-01	0.01169
78.699322	9.77E-01	0.0117
78.94708355	9.77E-01	0.0117
79.19959729	9.77E-01	0.01172
79.45393524	9.76E-01	0.01173
79.71114194	9.76E-01	0.01174
79.9654803	9.76E-01	0.01176
80.22648225	9.76E-01	0.01177
80.48553591	9.75E-01	0.01178
80.74747754	9.75E-01	0.0118
81.01314128	9.75E-01	0.01181
81.27597645	9.75E-01	0.01181
81.54449134	9.74E-01	0.01182
81.81300469	9.74E-01	0.01182
82.08524869	9.74E-01	0.01182
82.35848994	9.74E-01	0.01181
82.6307476	9.73E-01	0.0118
82.90869211	9.73E-01	0.01179
83.18471731	9.73E-01	0.01178
83.46449696	9.73E-01	0.01175
83.74808834	9.72E-01	0.01173
84.03167692	9.72E-01	0.01171
84.31713526	9.72E-01	0.01169
84.60448189	9.71E-01	0.01167
84.89559581	9.71E-01	0.01165
85.18860295	9.71E-01	0.01163
85.48063379	9.70E-01	0.01161
85.77645402	9.70E-01	0.0116
86.07319346	9.70E-01	0.01159
86.37373815	9.69E-01	0.01158
86.67523771	9.69E-01	0.01158
86.98141244	9.69E-01	0.01158
87.28852879	9.68E-01	0.01159
87.59472708	9.68E-01	0.0116
87.90563651	9.67E-01	0.01162
88.21932585	9.67E-01	0.01165
88.53304922	9.67E-01	0.01168
88.8486935	9.66E-01	0.01172
89.17089338	9.66E-01	0.01177
89.49123963	9.65E-01	0.01182
89.81714915	9.65E-01	0.01187
90.14222958	9.64E-01	0.01193
90.47383097	9.64E-01	0.01199
90.80355802	9.64E-01	0.01207
91.13710408	9.63E-01	0.01214
91.47250218	9.63E-01	0.01221
91.81445748	9.62E-01	0.01229
92.15267702	9.62E-01	0.01237
92.49560575	9.61E-01	0.01244
92.84415542	9.61E-01	0.01252
93.19464135	9.60E-01	0.0126
93.54136063	9.60E-01	0.01267
93.89650028	9.59E-01	0.01275
94.25449016	9.59E-01	0.01282
94.61630334	9.59E-01	0.01291
94.97617552	9.58E-01	0.01299
95.34077521	9.57E-01	0.01308
95.70818499	9.57E-01	0.01317
96.08223486	9.56E-01	0.01327
96.45531765	9.56E-01	0.01337
96.8274522	9.55E-01	0.01348
97.21085299	9.55E-01	0.01359
97.59430587	9.54E-01	0.01371
97.97870516	9.54E-01	0.01382
98.36778348	9.53E-01	0.01395
98.75972821	9.52E-01	0.01407
99.15354003	9.52E-01	0.01421
99.55298318	9.51E-01	0.01435
99.95525475	9.51E-01	0.01449
100.3612779	9.50E-01	0.01465
100.767337	9.49E-01	0.01482
101.1771907	9.49E-01	0.01498
101.5954701	9.48E-01	0.01515
102.0090803	9.47E-01	0.01534
102.4330112	9.47E-01	0.01552
102.856043	9.46E-01	0.01571
103.2865414	9.45E-01	0.01591
103.7180555	9.45E-01	0.01612
104.1552028	9.44E-01	0.01633
104.5923446	9.43E-01	0.01656
105.0369976	9.42E-01	0.01679
105.4835628	9.41E-01	0.01705
105.9348464	9.41E-01	0.01731
106.3917427	9.40E-01	0.01758
106.8467958	9.39E-01	0.01788
107.3093804	9.38E-01	0.01822
107.7757069	9.37E-01	0.01857
108.2458205	9.36E-01	0.01898
108.7206253	9.35E-01	0.01936
109.2011528	9.35E-01	0.01979
109.6853646	9.34E-01	0.02025
110.172421	9.33E-01	0.02071
110.6642174	9.32E-01	0.02116
111.1588295	9.31E-01	0.02164
111.6638161	9.30E-01	0.02218
112.1678301	9.29E-01	0.02272
112.6851197	9.28E-01	0.02322
113.2060655	9.27E-01	0.02383
113.7355021	9.26E-01	0.02444
114.2790777	9.26E-01	0.02506
114.8481907	9.25E-01	0.02572
115.0045824	9.24E-01	0.0257
115.1118947	9.24E-01	0.02584
115.2184439	9.24E-01	0.02597
115.3286233	9.24E-01	0.0261
115.4322424	9.23E-01	0.02623
115.5443389	9.23E-01	0.02637
115.6498565	9.23E-01	0.0265
115.7572962	9.23E-01	0.02664
115.8647192	9.23E-01	0.02677
115.9758133	9.22E-01	0.02692
116.0833163	9.22E-01	0.02706
116.1915633	9.22E-01	0.0272
116.2999033	9.22E-01	0.02734
116.4110687	9.22E-01	0.02749
116.5185045	9.21E-01	0.02763
116.6296496	9.21E-01	0.02778
116.7351812	9.21E-01	0.02793
116.8511453	9.21E-01	0.02809
116.9585127	9.21E-01	0.02824
117.072489	9.20E-01	0.0284
117.1761659	9.20E-01	0.02854
117.2901232	9.20E-01	0.02871
117.4021901	9.20E-01	0.02887
117.515251	9.20E-01	0.02903
117.6217225	9.20E-01	0.02919
117.740462	9.19E-01	0.02936
117.8449898	9.19E-01	0.02951
117.9618237	9.19E-01	0.02968
118.0692188	9.19E-01	0.02984
118.1898779	9.19E-01	0.03002
118.2953185	9.18E-01	0.03018
118.4112379	9.18E-01	0.03035
118.5223991	9.18E-01	0.03051
118.6401265	9.18E-01	0.03068
118.7522868	9.18E-01	0.03084
118.8671666	9.18E-01	0.03101
118.9755322	9.17E-01	0.03117
119.0951916	9.17E-01	0.03134
119.2082144	9.17E-01	0.0315
119.3240932	9.17E-01	0.03166
119.4324886	9.17E-01	0.03181
119.5577962	9.17E-01	0.03199
119.6652308	9.16E-01	0.03213
119.788597	9.16E-01	0.0323
119.8959831	9.16E-01	0.03244
120.0184316	9.16E-01	0.0326
120.1286747	9.16E-01	0.03275
120.2520657	9.15E-01	0.03291
120.3623881	9.15E-01	0.03306
120.4848548	9.15E-01	0.03321
120.5959569	9.15E-01	0.03336
120.7203102	9.15E-01	0.03352
120.8314938	9.15E-01	0.03366
120.9549175	9.14E-01	0.03382
121.0688983	9.14E-01	0.03397
121.1923339	9.14E-01	0.03413
121.3054573	9.14E-01	0.03428
121.4278299	9.14E-01	0.03445
121.5437765	9.13E-01	0.03461
121.6680635	9.13E-01	0.03477
121.7802828	9.13E-01	0.03493
121.9055335	9.13E-01	0.0351
122.0223947	9.13E-01	0.03526
122.1504308	9.13E-01	0.03544
122.2551028	9.12E-01	0.03558
122.390756	9.12E-01	0.03577
122.5056446	9.12E-01	0.03593
122.627177	9.12E-01	0.0361
122.7477355	9.12E-01	0.03626
122.8712102	9.11E-01	0.03643
122.9937134	9.11E-01	0.0366
123.1132825	9.11E-01	0.03676
123.2339417	9.11E-01	0.03691
123.3629386	9.11E-01	0.03708
123.482612	9.11E-01	0.03724
123.6032573	9.10E-01	0.03739
123.7304357	9.10E-01	0.03755
123.8509473	9.10E-01	0.0377
123.9762807	9.10E-01	0.03785
124.1024892	9.10E-01	0.038
124.2241004	9.09E-01	0.03815
124.3474467	9.09E-01	0.03829
124.4765369	9.09E-01	0.03845
124.5981313	9.09E-01	0.03859
124.7224729	9.09E-01	0.03873
124.8505831	9.08E-01	0.03893
124.9768151	9.08E-01	0.03908
125.1002729	9.08E-01	0.03922
125.2302993	9.08E-01	0.03939
125.3555262	9.07E-01	0.03954
125.4817658	9.07E-01	0.0397
125.6090234	9.07E-01	0.03986
125.7370495	9.07E-01	0.04004
125.862398	9.07E-01	0.04021
125.9942704	9.06E-01	0.04039
126.1205174	9.06E-01	0.04057
126.2467606	9.06E-01	0.04075
126.3795689	9.06E-01	0.04094
126.5049115	9.05E-01	0.04113
126.6377464	9.05E-01	0.04133
126.7630835	9.05E-01	0.04153
126.8939937	9.05E-01	0.04174
127.0268664	9.04E-01	0.04195
127.1540186	9.04E-01	0.04216
127.2858686	9.04E-01	0.04238
127.418778	9.04E-01	0.0426
127.5478973	9.03E-01	0.04283
127.6778046	9.03E-01	0.04305
127.8107436	9.03E-01	0.04328
127.9415832	9.03E-01	0.04351
128.0763954	9.02E-01	0.04375
128.2053934	9.02E-01	0.04397
128.342091	9.02E-01	0.04421
128.4710924	9.02E-01	0.04445
128.6058228	9.01E-01	0.04469
128.739633	9.01E-01	0.04493
128.8723822	9.01E-01	0.04517
129.0080903	9.01E-01	0.04541
129.1409905	9.01E-01	0.04565
129.2775348	9.00E-01	0.0459
129.4095052	9.00E-01	0.04614
129.5470243	9.00E-01	0.04638
129.6836151	9.00E-01	0.04663
129.8154648	8.99E-01	0.04687
129.9558917	8.99E-01	0.04713
130.0887054	8.99E-01	0.04737
130.2290405	8.99E-01	0.04762
130.3618651	8.98E-01	0.04787
130.5004552	8.98E-01	0.04812
130.639891	8.98E-01	0.04838
130.7754866	8.98E-01	0.04863
130.9139904	8.98E-01	0.0489
131.0562512	8.97E-01	0.04919
131.1881319	8.97E-01	0.04943
131.3359979	8.97E-01	0.04973
131.4660726	8.97E-01	0.04999
131.610235	8.96E-01	0.05028
131.7496735	8.96E-01	0.05058
131.887163	8.96E-01	0.05088
132.0342194	8.95E-01	0.0512
132.1661042	8.95E-01	0.05149
132.3149133	8.95E-01	0.05183
132.4552838	8.95E-01	0.05216
132.5928326	8.95E-01	0.05248
132.7360674	8.94E-01	0.05282
132.8811786	8.94E-01	0.05316
133.0206129	8.94E-01	0.0535
133.1646309	8.94E-01	0.05386
133.3069544	8.93E-01	0.05421
133.4511625	8.93E-01	0.05456
133.5943873	8.93E-01	0.05491
133.7384969	8.93E-01	0.05528
133.8853756	8.93E-01	0.05563
134.0248981	8.92E-01	0.05597
134.1764727	8.92E-01	0.05634
134.3150022	8.92E-01	0.05667
134.4657757	8.92E-01	0.05702
134.6098724	8.92E-01	0.05736
134.7588189	8.92E-01	0.05769
134.9019301	8.92E-01	0.05802
135.048876	8.91E-01	0.05834
135.1996807	8.91E-01	0.05866
135.3428438	8.91E-01	0.05897
135.4963793	8.91E-01	0.05929
135.6386878	8.91E-01	0.05959
135.7903672	8.91E-01	0.05991
135.9392561	8.90E-01	0.06023
136.0851855	8.90E-01	0.06054
136.239812	8.90E-01	0.06088
136.3848874	8.90E-01	0.0612
136.5383916	8.90E-01	0.06154
136.6872686	8.89E-01	0.06188
136.8388871	8.89E-01	0.06222
136.9925073	8.89E-01	0.06257
137.1404047	8.89E-01	0.06291
137.2930306	8.89E-01	0.06327
137.4484347	8.89E-01	0.06363
137.5964024	8.88E-01	0.06398
137.7528005	8.88E-01	0.06435
137.9026517	8.88E-01	0.06471
138.0599009	8.88E-01	0.06508
138.2125785	8.88E-01	0.06545
138.3660573	8.88E-01	0.06583
138.5206513	8.88E-01	0.0662
138.6760564	8.87E-01	0.06658
138.8287014	8.87E-01	0.06697
138.98885	8.87E-01	0.06735
139.1432778	8.87E-01	0.06773
139.2960147	8.87E-01	0.0681
139.4580282	8.87E-01	0.06848
139.6125577	8.87E-01	0.06884
139.7688482	8.87E-01	0.0692
139.9291212	8.87E-01	0.06955
140.0864382	8.86E-01	0.06989
140.2399848	8.86E-01	0.07022
140.4048389	8.86E-01	0.07056
140.5640248	8.86E-01	0.07087
140.719579	8.86E-01	0.07119
140.8815609	8.86E-01	0.0715
141.0426325	8.86E-01	0.0718
141.2037512	8.86E-01	0.07211
141.3620147	8.86E-01	0.07241
141.5259645	8.86E-01	0.07272
141.6880281	8.86E-01	0.07303
141.8499763	8.85E-01	0.07333
142.0064394	8.85E-01	0.07362
142.1788991	8.85E-01	0.07393
142.3360891	8.85E-01	0.07423
142.5000144	8.85E-01	0.07453
142.6649744	8.85E-01	0.07484
142.8326204	8.85E-01	0.07515
142.9919197	8.85E-01	0.07544
143.1586824	8.84E-01	0.07577
143.3273257	8.84E-01	0.07608
143.4893916	8.84E-01	0.0764
143.658982	8.84E-01	0.07674
143.8209651	8.84E-01	0.07707
143.9923439	8.84E-01	0.07741
144.1582648	8.84E-01	0.07775
144.3269206	8.83E-01	0.07811
144.4936139	8.83E-01	0.07845
144.6622118	8.83E-01	0.0788
144.8318803	8.83E-01	0.07915
144.9995731	8.83E-01	0.0795
145.177514	8.83E-01	0.07986
145.3368079	8.83E-01	0.08019
145.5119914	8.83E-01	0.08055
145.6845163	8.82E-01	0.08089
145.8540189	8.82E-01	0.08123
146.0254644	8.82E-01	0.08157
146.1978305	8.82E-01	0.08192
146.3693944	8.82E-01	0.08226
146.5446525	8.82E-01	0.08261
146.7170319	8.82E-01	0.08295
146.8903393	8.82E-01	0.08331
147.0656268	8.81E-01	0.08365
147.2408084	8.81E-01	0.084
147.4160574	8.81E-01	0.08435
147.5883858	8.81E-01	0.0847
147.766577	8.81E-01	0.08505
147.9436101	8.81E-01	0.08539
148.1187674	8.81E-01	0.08576
148.2978876	8.80E-01	0.08613
148.4731741	8.80E-01	0.0865
148.6511925	8.80E-01	0.08687
148.8319608	8.80E-01	0.08725
149.0101247	8.80E-01	0.08764
149.1872795	8.80E-01	0.08801
149.3700747	8.80E-01	0.08839
149.5461026	8.80E-01	0.08877
149.7317678	8.80E-01	0.08915
149.9117313	8.80E-01	0.08953
150.0906742	8.79E-01	0.08989
150.2762377	8.79E-01	0.09026
150.4533137	8.79E-01	0.09058
150.6399586	8.79E-01	0.09095
150.8246818	8.79E-01	0.0913
151.0026856	8.79E-01	0.09162
151.1910656	8.79E-01	0.09197
151.3756651	8.79E-01	0.09231
151.5603454	8.79E-01	0.09264
151.7451054	8.79E-01	0.093
151.9297579	8.78E-01	0.09332
152.1182198	8.78E-01	0.09364
152.3047175	8.78E-01	0.09397
152.491298	8.78E-01	0.0943
152.6787122	8.78E-01	0.09464
152.867153	8.78E-01	0.09497
153.0545481	8.78E-01	0.0953
153.2496011	8.78E-01	0.09565
153.435277	8.77E-01	0.09598
153.6255912	8.77E-01	0.09631
153.8148515	8.77E-01	0.09664
154.0080221	8.77E-01	0.09698
154.1991853	8.77E-01	0.09733
154.3914005	8.77E-01	0.09768
154.5827463	8.76E-01	0.09805
154.7786246	8.76E-01	0.09846
154.9670579	8.76E-01	0.09886
155.1621644	8.76E-01	0.09929
155.3599042	8.75E-01	0.09975
155.5530741	8.75E-01	0.1002
155.7498555	8.75E-01	0.1007
155.943997	8.75E-01	0.1011
156.1390164	8.75E-01	0.1016
156.3378754	8.75E-01	0.1021
156.5356605	8.74E-01	0.1026
156.7345411	8.74E-01	0.103
156.9323386	8.74E-01	0.1035
157.1310342	8.74E-01	0.104
157.3280375	8.74E-01	0.1045
157.5305392	8.74E-01	0.105
157.7283454	8.74E-01	0.1055
157.9318796	8.73E-01	0.106
158.1325109	8.73E-01	0.1065
158.3370902	8.73E-01	0.1071
158.5349012	8.73E-01	0.1076
158.7421496	8.73E-01	0.1081
158.9399559	8.73E-01	0.1086
159.1490826	8.73E-01	0.1091
159.3534348	8.73E-01	0.1096
159.5552324	8.73E-01	0.1101
159.7643354	8.73E-01	0.1107
159.9667628	8.73E-01	0.1112
160.1769466	8.73E-01	0.1117
160.381459	8.72E-01	0.1121
160.5914865	8.72E-01	0.1126
160.7987279	8.72E-01	0.1131
161.0050413	8.72E-01	0.1136
161.2190123	8.72E-01	0.1142
161.4261961	8.72E-01	0.1147
161.6381277	8.72E-01	0.1154
161.8463908	8.71E-01	0.116
162.0611226	8.71E-01	0.1167
162.2713274	8.71E-01	0.1174
162.4861242	8.71E-01	0.1182
162.6952987	8.71E-01	0.1189
162.9118623	8.71E-01	0.1197
163.1294325	8.71E-01	0.1205
163.3387613	8.71E-01	0.1212
163.5553163	8.71E-01	0.122
163.7748261	8.72E-01	0.1228
163.9886353	8.72E-01	0.1236
164.2034385	8.72E-01	0.1244
164.4240384	8.72E-01	0.1253
164.6434827	8.73E-01	0.1262
164.8591291	8.73E-01	0.1271
165.0806163	8.74E-01	0.128
165.3020382	8.74E-01	0.129
165.5205192	8.75E-01	0.1299
165.7448962	8.77E-01	0.1306
165.9652166	8.78E-01	0.131
166.1847871	8.80E-01	0.1307
166.4147671	8.82E-01	0.1294
166.6303784	8.84E-01	0.1271
166.8584503	8.83E-01	0.1239
167.0864718	8.81E-01	0.1217
167.3049571	8.78E-01	0.1215
167.5387293	8.76E-01	0.1223
167.7581728	8.75E-01	0.1236
167.9897997	8.74E-01	0.1248
168.2159047	8.73E-01	0.1261
168.4449076	8.73E-01	0.1273
168.6766002	8.73E-01	0.1285
168.9017977	8.73E-01	0.1296
169.136365	8.73E-01	0.1306
169.3653376	8.73E-01	0.1316
169.600035	8.73E-01	0.1326
169.8270088	8.73E-01	0.1336
170.0634549	8.73E-01	0.1346
170.2933089	8.73E-01	0.1356
170.532698	8.74E-01	0.1365
170.7624119	8.74E-01	0.1375
171.0017075	8.74E-01	0.1386
171.2345795	8.75E-01	0.1396
171.4775729	8.75E-01	0.1407
171.7093655	8.76E-01	0.1418
171.9515629	8.77E-01	0.143
172.1851178	8.78E-01	0.1442
172.4291397	8.79E-01	0.1455
172.6663993	8.81E-01	0.1467
172.9096178	8.83E-01	0.148
173.1508625	8.85E-01	0.1491
173.3927812	8.88E-01	0.1499
173.6358633	8.92E-01	0.1501
173.8771892	8.97E-01	0.149
174.1248115	9.02E-01	0.1458
174.3670089	9.06E-01	0.1396
174.6128322	9.07E-01	0.1304
174.8625556	9.03E-01	0.1215
175.1038434	8.95E-01	0.1177
175.3552223	8.89E-01	0.118
175.6050854	8.84E-01	0.1198
175.8489271	8.81E-01	0.122
176.1034519	8.79E-01	0.1239
176.3521923	8.78E-01	0.1257
176.6026426	8.77E-01	0.1273
176.8560758	8.76E-01	0.1287
177.1094785	8.76E-01	0.13
177.3600561	8.75E-01	0.1312
177.6143971	8.75E-01	0.1323
177.8745725	8.75E-01	0.1333
178.1214352	8.75E-01	0.1342
178.376683	8.75E-01	0.1348
178.6455331	8.74E-01	0.1357
178.886024	8.74E-01	0.1364
179.1711708	8.74E-01	0.1372
179.3951671	8.74E-01	0.1379
179.6850656	8.74E-01	0.1386
179.9281042	8.74E-01	0.1392
180.2061076	8.74E-01	0.1398
180.4466192	8.75E-01	0.1403
180.731761	8.75E-01	0.1408
180.9747354	8.75E-01	0.1412
181.262345	8.75E-01	0.1417
181.5144554	8.75E-01	0.1421
181.771532	8.75E-01	0.1424
182.0590084	8.75E-01	0.1428
182.3090519	8.75E-01	0.1431
182.5941985	8.75E-01	0.1434
182.8416704	8.75E-01	0.1437
183.1363315	8.75E-01	0.144
183.38392	8.75E-01	0.1442
183.6808771	8.75E-01	0.1444
183.926121	8.75E-01	0.1446
184.2231957	8.75E-01	0.1449
184.4707143	8.75E-01	0.1451
184.7772628	8.74E-01	0.1453
185.0364909	8.74E-01	0.1455
185.3100184	8.74E-01	0.1457
185.5904675	8.74E-01	0.146
185.8734387	8.73E-01	0.1462
186.1491686	8.73E-01	0.1465
186.4296423	8.73E-01	0.1467
186.7104001	8.73E-01	0.147
186.9883385	8.72E-01	0.1473
187.2806839	8.72E-01	0.1476
187.5424497	8.72E-01	0.1479
187.8558852	8.71E-01	0.1483
188.1129831	8.71E-01	0.1487
188.4240346	8.70E-01	0.1491
188.6809682	8.70E-01	0.1495
189.0039865	8.70E-01	0.1501
189.253838	8.69E-01	0.1505
189.5886791	8.69E-01	0.151
189.8313597	8.68E-01	0.1515
190.1662075	8.68E-01	0.1521
190.4208981	8.68E-01	0.1526
190.7460914	8.67E-01	0.1532
191.0079296	8.67E-01	0.1538
191.3283415	8.66E-01	0.1544
191.6065868	8.66E-01	0.155
191.9200988	8.66E-01	0.1558
192.2006651	8.65E-01	0.1564
192.5119408	8.65E-01	0.1571
192.8089328	8.65E-01	0.1579
193.1059404	8.64E-01	0.1586
193.4077865	8.64E-01	0.1593
193.7142098	8.64E-01	0.1601
194.0158368	8.63E-01	0.1609
194.3129225	8.63E-01	0.1617
194.6289444	8.63E-01	0.1625
194.9187184	8.63E-01	0.1633
195.2465543	8.62E-01	0.1642
195.5412556	8.62E-01	0.165
195.8523162	8.62E-01	0.1659
196.1587813	8.62E-01	0.1667
196.4792839	8.62E-01	0.1677
196.7811568	8.62E-01	0.1685
197.1018179	8.62E-01	0.1694
197.4059225	8.61E-01	0.1703
197.7336704	8.61E-01	0.1712
198.0447909	8.61E-01	0.1721
198.3534012	8.61E-01	0.173
198.6858974	8.61E-01	0.1739
198.9901227	8.61E-01	0.1748
199.317709	8.61E-01	0.1758
199.6335168	8.61E-01	0.1767
199.9661293	8.61E-01	0.1777
200.2794672	8.61E-01	0.1786
200.6074208	8.61E-01	0.1796
200.9279832	8.61E-01	0.1805
201.2577391	8.62E-01	0.1814
201.5879236	8.62E-01	0.1824
201.9109722	8.62E-01	0.1833
202.2433053	8.62E-01	0.1842
202.5734243	8.62E-01	0.1852
202.9056189	8.63E-01	0.1861
203.2262453	8.63E-01	0.187
203.579973	8.63E-01	0.1879
203.9007238	8.63E-01	0.1888
204.2446917	8.64E-01	0.1897
204.5749682	8.64E-01	0.1906
204.9212166	8.64E-01	0.1915
205.2536865	8.65E-01	0.1924
205.5954191	8.65E-01	0.1932
205.9420545	8.66E-01	0.194
206.2768182	8.66E-01	0.1948
206.6257571	8.66E-01	0.1956
206.9700045	8.67E-01	0.1964
207.316441	8.67E-01	0.1971
207.6629957	8.68E-01	0.1979
208.0047782	8.68E-01	0.1986
208.3655456	8.69E-01	0.1994
208.7145654	8.69E-01	0.2001
209.0538282	8.70E-01	0.2008
209.4263832	8.70E-01	0.2015
209.7704504	8.71E-01	0.2021
210.1241967	8.71E-01	0.2028
210.4873568	8.72E-01	0.2034
210.8406587	8.72E-01	0.204
211.199106	8.73E-01	0.2046
211.5551642	8.73E-01	0.205
211.9229297	8.74E-01	0.2056
212.2930665	8.74E-01	0.2062
212.6324022	8.75E-01	0.2066
213.0310096	8.76E-01	0.2072
213.3727104	8.76E-01	0.2076
213.7449852	8.77E-01	0.208
214.1270669	8.77E-01	0.2086
214.485282	8.78E-01	0.209
214.8603356	8.78E-01	0.2095
215.2325929	8.79E-01	0.2099
215.6098918	8.79E-01	0.2104
215.9776044	8.80E-01	0.2107
216.3760245	8.80E-01	0.2112
216.7247606	8.81E-01	0.2116
217.1232829	8.81E-01	0.212
217.5003772	8.82E-01	0.2123
217.8849101	8.82E-01	0.2128
218.2477512	8.83E-01	0.2132
218.6673251	8.83E-01	0.2135
219.0304572	8.84E-01	0.2138
219.4192593	8.84E-01	0.2142
219.8250336	8.85E-01	0.2147
220.1951528	8.85E-01	0.2151
220.5983093	8.86E-01	0.2156
220.9919147	8.86E-01	0.216
221.3806021	8.87E-01	0.2164
221.7770066	8.87E-01	0.2167
222.1823982	8.88E-01	0.2171
222.5760875	8.89E-01	0.2175
222.9671646	8.89E-01	0.2178
223.3845699	8.90E-01	0.2182
223.7829389	8.90E-01	0.2186
224.1717867	8.91E-01	0.2189
224.6034837	8.92E-01	0.2192
224.9947825	8.92E-01	0.2195
225.4095753	8.93E-01	0.2198
225.8176738	8.94E-01	0.22
226.2371603	8.95E-01	0.2203
226.630863	8.96E-01	0.2206
227.0716765	8.97E-01	0.2207
227.4749691	8.97E-01	0.2208
227.8826289	8.98E-01	0.221
228.3232843	8.99E-01	0.221
228.733571	9.00E-01	0.221
229.1533819	9.01E-01	0.221
229.5891913	9.02E-01	0.221
229.9899641	9.03E-01	0.2209
230.4499518	9.04E-01	0.2208
230.84815	9.05E-01	0.2206
231.3033809	9.06E-01	0.2203
231.7274894	9.07E-01	0.22
232.1614157	9.08E-01	0.2196
232.5926065	9.09E-01	0.2192
233.0407323	9.10E-01	0.2185
233.4743193	9.11E-01	0.2179
233.9130533	9.12E-01	0.2172
234.3605273	9.14E-01	0.2163
234.7923741	9.15E-01	0.2154
235.251703	9.16E-01	0.2142
235.6881875	9.16E-01	0.213
236.1406864	9.17E-01	0.2117
236.5980867	9.18E-01	0.2102
237.0386799	9.19E-01	0.2087
237.5032087	9.20E-01	0.207
237.9535762	9.20E-01	0.2053
238.4061134	9.20E-01	0.2035
238.8797047	9.21E-01	0.2015
239.3279206	9.21E-01	0.1996
239.7921981	9.21E-01	0.1975
240.2638678	9.20E-01	0.1954
240.7233739	9.20E-01	0.1933
241.2020023	9.19E-01	0.1912
241.6594547	9.18E-01	0.1892
242.1309398	9.17E-01	0.1872
242.6213596	9.16E-01	0.1853
243.0737318	9.14E-01	0.1835
243.5737244	9.13E-01	0.1818
244.0378241	9.11E-01	0.1802
244.5234672	9.09E-01	0.1787
245.0115312	9.07E-01	0.1774
245.4757851	9.05E-01	0.1763
246.0018255	9.03E-01	0.1752
246.4566147	9.01E-01	0.1744
246.9706356	8.99E-01	0.1736
247.4467953	8.97E-01	0.173
247.9490902	8.94E-01	0.1725
248.4534285	8.92E-01	0.1722
248.9273316	8.90E-01	0.172
249.460254	8.88E-01	0.1719
249.9410326	8.86E-01	0.172
250.4570569	8.83E-01	0.1721
250.9569276	8.81E-01	0.1723
251.463898	8.79E-01	0.1727
251.9964796	8.77E-01	0.1731
252.4706405	8.75E-01	0.1736
253.0266047	8.73E-01	0.1742
253.5103557	8.71E-01	0.1748
254.0568564	8.69E-01	0.1756
254.5638966	8.67E-01	0.1763
255.096582	8.65E-01	0.1772
255.6104199	8.64E-01	0.178
256.1411483	8.62E-01	0.179
256.687902	8.60E-01	0.18
257.2017741	8.59E-01	0.1809
257.7439608	8.57E-01	0.182
258.2766005	8.56E-01	0.1831
258.8211716	8.54E-01	0.1845
259.3566499	8.53E-01	0.1856
259.9036105	8.51E-01	0.1868
260.4479587	8.50E-01	0.188
261.0017347	8.49E-01	0.1892
261.5418693	8.48E-01	0.1904
262.1075152	8.47E-01	0.1916
262.6500154	8.46E-01	0.1929
263.2176758	8.44E-01	0.1941
263.7765707	8.43E-01	0.1954
264.3282634	8.42E-01	0.1965
264.9128318	8.41E-01	0.1979
265.4596297	8.41E-01	0.1991
266.0446512	8.40E-01	0.2003
266.6053089	8.39E-01	0.2015
267.1833044	8.38E-01	0.2027
267.7701729	8.37E-01	0.204
268.3311654	8.36E-01	0.2051
268.9324263	8.36E-01	0.2063
269.5006478	8.35E-01	0.2074
270.101871	8.34E-01	0.2086
270.6815507	8.34E-01	0.2098
271.2755948	8.33E-01	0.2109
271.8794064	8.32E-01	0.212
272.4613603	8.32E-01	0.213
273.0788885	8.31E-01	0.2141
273.6684105	8.30E-01	0.215
274.2835399	8.30E-01	0.216
274.8868126	8.29E-01	0.217
275.4951936	8.29E-01	0.2179
276.117957	8.28E-01	0.2188
276.7188351	8.27E-01	0.2198
277.3527333	8.27E-01	0.2206
277.9683513	8.26E-01	0.2215
278.5929684	8.25E-01	0.2224
279.2222855	8.24E-01	0.2233
279.8519254	8.24E-01	0.2242
280.4812387	8.23E-01	0.2251
281.1204002	8.22E-01	0.2259
281.7637621	8.21E-01	0.2268
282.3978534	8.21E-01	0.2276
283.0438515	8.20E-01	0.2285
283.6947593	8.19E-01	0.2293
284.3473634	8.18E-01	0.2302
284.9957703	8.17E-01	0.231
285.6491156	8.16E-01	0.232
286.3180259	8.15E-01	0.2329
286.9688195	8.14E-01	0.2338
287.6499385	8.13E-01	0.2349
288.3054671	8.12E-01	0.2359
288.9895854	8.11E-01	0.237
289.6492109	8.10E-01	0.2379
290.3492481	8.09E-01	0.2389
291.0096377	8.08E-01	0.24
291.7073515	8.07E-01	0.2413
292.3911787	8.06E-01	0.2424
293.0747556	8.04E-01	0.2435
293.7817229	8.03E-01	0.2448
294.4655301	8.02E-01	0.2462
295.179934	8.01E-01	0.2474
295.8801588	8.00E-01	0.2487
296.587261	7.99E-01	0.25
297.2991768	7.98E-01	0.2513
298.0087879	7.97E-01	0.2527
298.7397894	7.96E-01	0.2539
299.4490697	7.95E-01	0.2554
300.1820753	7.94E-01	0.2567
300.9033411	7.93E-01	0.2581
301.6442262	7.92E-01	0.2596
302.372544	7.91E-01	0.2611
303.1192086	7.90E-01	0.2625
303.8479731	7.89E-01	0.264
304.6139256	7.88E-01	0.2655
305.3446395	7.87E-01	0.267
306.1090961	7.86E-01	0.2685
306.8652372	7.85E-01	0.27
307.6342829	7.84E-01	0.2714
308.37881	7.83E-01	0.2731
309.1732023	7.82E-01	0.2749
309.9329537	7.81E-01	0.2765
310.7081278	7.80E-01	0.278
311.4911022	7.79E-01	0.2794
312.2780327	7.78E-01	0.2812
313.0586726	7.77E-01	0.2831
313.8599098	7.76E-01	0.2845
314.6540785	7.76E-01	0.2861
315.4490658	7.75E-01	0.2877
316.2601813	7.74E-01	0.2895
317.0706133	7.73E-01	0.2912
317.8746141	7.72E-01	0.2923
318.70646	7.71E-01	0.2938
319.5105546	7.70E-01	0.2956
320.347685	7.69E-01	0.2971
321.1800608	7.68E-01	0.2989
322.0050646	7.67E-01	0.3005
322.8536534	7.66E-01	0.3022
323.6788379	7.65E-01	0.304
324.5464778	7.64E-01	0.3058
325.3880353	7.63E-01	0.3072
326.2434116	7.62E-01	0.3093
327.105886	7.61E-01	0.3108
327.9764031	7.60E-01	0.3125
328.8393546	7.58E-01	0.3142
329.7226426	7.57E-01	0.316
330.593057	7.56E-01	0.318
331.4866903	7.55E-01	0.3199
332.3611096	7.54E-01	0.3216
333.2688193	7.53E-01	0.3232
334.1553804	7.52E-01	0.3244
335.0693084	7.50E-01	0.3265
335.9682188	7.49E-01	0.3287
336.8875266	7.47E-01	0.3301
337.7943917	7.46E-01	0.3323
338.7237344	7.44E-01	0.3348
339.6572744	7.43E-01	0.3362
340.5791329	7.41E-01	0.3389
341.5332911	7.40E-01	0.3411
342.465375	7.38E-01	0.3434
343.414926	7.37E-01	0.3457
344.3716703	7.35E-01	0.3475
345.3318367	7.33E-01	0.3502
346.2906014	7.32E-01	0.3531
347.2644313	7.30E-01	0.3549
348.2408193	7.28E-01	0.3577
349.223697	7.26E-01	0.3603
350.2022462	7.25E-01	0.3641
351.2061913	7.24E-01	0.3667
352.1888946	7.22E-01	0.3684
353.2002541	7.20E-01	0.3717
354.207319	7.18E-01	0.3756
375.684	0.6571	0.4568
399.923	0.6852	0.5838
427.504	0.7395	0.604
459.17	0.7487	0.658
495.904	0.7429	0.7477
570.023	0.763	0.905
579.888	0.792	0.924
590.1	0.812	0.935
600.097	0.835	0.938
609.838	0.862	0.937
619.9	0.887	0.93
629.98	0.914	0.924
640.062	0.937	0.915
650.131	0.957	0.9
659.819	0.975	0.884
669.8	0.993	0.869
680.088	1.01	0.856
689.928	1.02	0.837
700.057	1.03	0.826
719.977	1.04	0.809
740.179	1.05	0.817
760.147	1.06	0.835
779.748	1.07	0.85
799.871	1.08	0.866
819.974	1.09	0.878
839.973	1.1	0.891
859.778	1.12	0.899
879.915	1.14	0.903
899.71	1.16	0.912
919.733	1.18	0.919
939.955	1.2	0.93
959.598	1.19	0.942
980.079	1.17	0.957
999.839	1.19	0.981
1019.57	1.22	1.01
1040.1	1.22	1.02
1059.66	1.23	1.04
1079.97	1.24	1.05
1100.09	1.24	1.07
1119.96	1.25	1.09
1139.52	1.27	1.11
1159.78	1.28	1.13
1179.64	1.3	1.15
1200.19	1.32	1.17
1220.28	1.35	1.18
1239.92	1.37	1.18
1259.96	1.4	1.17
1279.99	1.42	1.17
1299.99	1.43	1.16
1319.92	1.43	1.15
1339.89	1.43	1.15
1359.88	1.43	1.14
1380.01	1.43	1.14
1399.95	1.45	1.15
1420	1.46	1.15
1439.95	1.46	1.15
1459.96	1.47	1.15
1480	1.47	1.15
1499.88	1.47	1.15
1549.94	1.46	1.16
1599.95	1.46	1.22
1649.99	1.48	1.21
1699.99	1.49	1.22
1749.89	1.46	1.23
1799.94	1.42	1.23
1849.9	1.38	1.24
1899.79	1.34	1.26
1949.98	1.3	1.29
2000	1.24	1.34
2032.46	1.38	1.37
2049.93	1.19	1.4
2066.33	1.38	1.4
2101.36	1.37	1.43
2137.59	1.36	1.47
2213.93	1.36	1.54
2295.93	1.36	1.61
2384.23	1.36	1.67
2479.6	1.36	1.76
2582.92	1.38	1.85
2695.22	1.39	1.95
2817.73	1.43	2.04
2951.9	1.45	2.14
3099.5	1.49	2.25
3178.97	1.51	2.32
3262.63	1.53	2.37
3350.81	1.56	2.42
3443.89	1.58	2.48
3542.29	1.6	2.55
3646.47	1.62	2.62
3756.97	1.65	2.69
3874.38	1.68	2.76
3999.35	1.72	2.84
4132.67	1.75	2.92
4275.17	1.79	3.01
4427.86	1.83	3.1
4591.85	1.87	3.2
4768.46	1.91	3.3
4959.2	1.96	3.42
5165.83	2.03	3.54
5390.44	2.1	3.67
5635.45	2.17	3.77
5903.81	2.23	3.92
6199	2.3	4.07
6525.26	2.38	4.26
6887.78	2.51	4.43
7292.94	2.63	4.63
7748.75	2.76	4.84
8265.33	2.92	5.07
8855.71	3.1	5.32
9536.92	3.29	5.61
10331.7	3.55	5.92
10780.9	3.7	6.08
11270.9	3.86	6.24
11807.6	4.03	6.44
12398	4.25	6.62
13050.5	4.5	6.77
13775.6	4.77	6.91
14088.6	4.91	6.95
14585.9	5.05	6.98
15119.5	5.17	7.01
15497.5	5.31	7.04
16101.3	5.44	7.04
16530.7	5.57	7.02
16983.6	5.67	6.95
17711.4	5.71	6.83
18232.4	5.66	6.73
19073.8	5.52	6.66
19679.4	5.34	6.7
20663.3	5.13	6.75
21750.9	4.86	6.89
22541.8	4.58	7.14
23842.3	4.3	7.4
24796	3.91	7.71
26378.7	3.36	8.4
27551.1	3.03	9.31
28832.6	2.92	10.3
30995	2.81	11.4
32626.3	3.03	12.5
35422.9	3.28	13.7
38743.8	3.57	14.9
41326.7	3.92	16.2
44278.6	4.24	17.7
49592	4.7	19.4
56354.5	5.24	21.5
61990	5.9	24
72929.4	6.78	27.2
82653.3	8.18	31.2
95369.2	9.91	36.7
123980	13.2	44.7
