;  Optical constants for Ru
; 
;   taken from:
;
;   D. L. Windt, Webster C. Cash, Jr., M. Scott, P. Arendt, B. Newnam,
;   R. F. Fisher, and A. B. Swartzlander, 'Optical Constants for thin films
;   of Ti, Zr, Nb, Mo, Ru, Rh, Pd, Ag, Hf, Ta, W, Re, Ir, Os, Pt, and Au
;   from 24 to 1216 A', App. Opt., 27, 246, 1988.
;   
;    Lambda (A)            n            k
;-----------------------------------------
   23.620      .99668	.00353
   31.600      .99698	.00254
   44.700      .99546	.00157
   67.600      .98402	.00264
   114.00      .9417	.00543
   135.50      .9023	.0129	
   171.40      .809	.125
   243.03      .870	.216
   256.32      .888	.221
   303.78      .858	.140
   327.00      .805	.179
   356.80      .745	.216
   379.31      .714	.292
   405.85      .681	.346
   447.81      .696	.511
   460.73      .679	.553
   489.50      .739	.583
   539.09      .782	.730
   584.33      .839	.831
   616.29      .930	.895
   671.39      1.19	.96	
   718.48      1.13	.831	
   735.90      1.21	.866
   743.72      1.19	.843
   834.46      1.25	.772
   878.00      1.23	.772
   919.78      1.24	.745
   932.05      1.29	.727
   988.78      1.26	.694
   1025.8      1.19	.634
   1048.2      1.14	.637
   1066.7      1.14	.616
   1085.7      1.02	.564
   1135.0      1.05	.574
   1200.7      .983	.589
   1215.7      .906	.590
