;  Optical constants for Sc.
;  Density = 2.9850000 g/cm3
;   
;  Computed from the atomic scattering factors from 
;  CXRO <http://www-cxro.lbl.gov> and
;  LLNL <http://www-phys.llnl.gov/V_Div/scattering/asf.html>.
;   
;  Lambda (A) n k
      0.12398425       0.99999994    2.8807403e-11
      0.12460729       0.99999994    2.9410584e-11
      0.12523662       0.99999994    3.0029293e-11
      0.12651454       0.99999994    3.1316261e-11
      0.12848109       0.99999994    3.3377749e-11
      0.13050974       0.99999994    3.5610738e-11
      0.13189814       0.99999993    3.7202834e-11
      0.13331640       0.99999993    3.8884221e-11
      0.13550191       0.99999993    4.1587519e-11
      0.13776028       0.99999993    4.4528180e-11
      0.13930815       0.99999993    4.6631256e-11
      0.14089119       0.99999993    4.8858833e-11
      0.14333439       0.99999992    5.2453795e-11
      0.14586382       0.99999992    5.6383817e-11
      0.14760030       0.99999992    5.9207754e-11
      0.14937861       0.99999992    6.2209851e-11
      0.15064915       0.99999991    6.4424238e-11
      0.15212791       0.99999991    6.7076644e-11
      0.15344585       0.99999991    6.9509198e-11
      0.15498031       0.99999991    7.2424893e-11
      0.15634836       0.99999991    7.5097732e-11
      0.15774078       0.99999991    7.7893537e-11
      0.15915822       0.99999990    8.0820399e-11
      0.16078881       0.99999990    8.4289094e-11
      0.16313717       0.99999990    8.9482097e-11
      0.16421755       0.99999990    9.1950672e-11
      0.16540055       0.99999990    9.4712603e-11
      0.16709468       0.99999989    9.8776929e-11
      0.16868605       0.99999989    1.0271383e-10
      0.17030804       0.99999989    1.0684755e-10
      0.17220035       0.99999989    1.1182769e-10
      0.17462570       0.99999989    1.1846599e-10
      0.17712036       0.99999988    1.2560100e-10
      0.17968732       0.99999988    1.3326555e-10
      0.18232978       0.99999987    1.4152010e-10
      0.18395289       0.99999987    1.4677831e-10
      0.18552185       0.99999987    1.5200079e-10
      0.18813998       0.99999987    1.6102741e-10
      0.19074500       0.99999986    1.7040516e-10
      0.19372539       0.99999986    1.8161969e-10
      0.19680040       0.99999985    1.9376603e-10
      0.19901164       0.99999985    2.0287372e-10
      0.20160041       0.99999985    2.1394320e-10
      0.20392146       0.99999984    2.2425149e-10
      0.20664042       0.99999984    2.3680005e-10
      0.20733152       0.99999984    2.4006693e-10
      0.20823690       0.99999984    2.4439887e-10
      0.21193889       0.99999983    2.6272850e-10
      0.21376595       0.99999983    2.7214891e-10
      0.21551234       0.99999982    2.8139074e-10
      0.21828213       0.99999982    2.9653183e-10
      0.22140045       0.99999982    3.1430662e-10
      0.22542591       0.99999981    3.3843054e-10
      0.22749404       0.99999980    3.5133348e-10
      0.22960046       0.99999980    3.6485416e-10
      0.23174626       0.99999980    3.7902927e-10
      0.23393255       0.99999979    3.9389471e-10
      0.23616048       0.99999979    4.0949340e-10
      0.23843125       0.99999979    4.2586775e-10
      0.24074612       0.99999978    4.4306474e-10
      0.24310637       0.99999978    4.6113414e-10
      0.24551337       0.99999977    4.8012982e-10
      0.24796850       0.99999977    5.0010891e-10
      0.25047323       0.99999976    5.2107357e-10
      0.25302908       0.99999976    5.4314314e-10
      0.25563763       0.99999975    5.6638817e-10
      0.25830052       0.99999975    5.9088491e-10
      0.26101947       0.99999974    6.1671447e-10
      0.26379628       0.99999974    6.4396445e-10
      0.26663280       0.99999973    6.7272947e-10
      0.26953098       0.99999973    7.0311171e-10
      0.27369592       0.99999972    7.4857536e-10
      0.27861629       0.99999971    8.0501526e-10
      0.28306906       0.99999970    8.5875595e-10
      0.28833547       0.99999969    9.2576278e-10
      0.29310697       0.99999968    9.8981141e-10
      0.29590513       0.99999967    1.0288947e-09
      0.29875723       0.99999966    1.0699179e-09
      0.30166484       0.99999966    1.1129971e-09
      0.30388297       0.99999965    1.1467330e-09
      0.30689171       0.99999964    1.1937191e-09
      0.30996062       0.99999964    1.2431262e-09
      0.31388418       0.99999963    1.3083356e-09
      0.31790833       0.99999962    1.3778610e-09
      0.32203701       0.99999961    1.4520530e-09
      0.32627434       0.99999960    1.5312885e-09
      0.33062467       0.99999959    1.6158239e-09
      0.33509257       0.99999958    1.7062567e-09
      0.33968288       0.99999956    1.8030874e-09
      0.34411393       0.99999955    1.9004297e-09
      0.34729482       0.99999954    1.9727123e-09
      0.35123017       0.99999953    2.0649849e-09
      0.35525573       0.99999952    2.1626570e-09
      0.35937464       0.99999951    2.2660251e-09
      0.36359018       0.99999950    2.3756344e-09
      0.36681731       0.99999949    2.4621926e-09
      0.37121033       0.99999948    2.5838338e-09
      0.37570985       0.99999947    2.7130390e-09
      0.38031979       0.99999945    2.8500509e-09
      0.38385217       0.99999944    2.9585349e-09
      0.38866536       0.99999943    3.1112848e-09
      0.39360079       0.99999941    3.2739998e-09
      0.39738542       0.99999940    3.4028988e-09
      0.40254627       0.99999939    3.5847502e-09
      0.40784293       0.99999937    3.7788749e-09
      0.41328083       0.99999935    4.0507798e-09
      0.41878648       0.99999934    4.2710322e-09
      0.42556111       0.99999931    4.5540580e-09
      0.43244386       0.99999929    4.8556976e-09
      0.43943763       0.99999927    5.1771109e-09
      0.44654550       0.99999924    5.5196384e-09
      0.45376748       0.99999922    5.8846273e-09
      0.46110683       0.99999919    6.2735893e-09
      0.46856529       0.99999917    6.6880110e-09
      0.47614462       0.99999914    7.1296271e-09
      0.48384475       0.99999911    7.6000980e-09
      0.49167126       0.99999908    8.1014023e-09
      0.49962423       0.99999905    8.6355071e-09
      0.50770562       0.99999902    9.2044675e-09
      0.51591745       0.99999899    9.8106018e-09
      0.52426182       0.99999896    1.0456325e-08
      0.53274087       0.99999892    1.1144150e-08
      0.54135684       0.99999889    1.1876793e-08
      0.55011203       0.99999885    1.2657136e-08
      0.55901137       0.99999881    1.3488470e-08
      0.56805239       0.99999877    1.4373761e-08
      0.57724012       0.99999873    1.5316631e-08
      0.58657727       0.99999869    1.6320871e-08
      0.59606380       0.99999865    1.7390216e-08
      0.60570535       0.99999860    1.8529079e-08
      0.61550195       0.99999856    1.9741741e-08
      0.62545654       0.99999851    2.1032976e-08
      0.63557222       0.99999846    2.2407861e-08
      0.64585222       0.99999841    2.3871789e-08
      0.65629996       0.99999836    2.5430574e-08
      0.66691545       0.99999831    2.7089946e-08
      0.67770213       0.99999825    2.8856481e-08
      0.68866366       0.99999819    3.0737006e-08
      0.69979991       0.99999813    3.2738671e-08
      0.71111866       0.99999807    3.4869431e-08
      0.72262001       0.99999801    3.7137441e-08
      0.73430809       0.99999794    3.9551365e-08
      0.74618734       0.99999787    4.2120712e-08
      0.75825317       0.99999780    4.4854515e-08
      0.77051923       0.99999773    4.7764381e-08
      0.78298095       0.99999766    5.0860504e-08
      0.79564809       0.99999758    5.4155504e-08
      0.80851560       0.99999750    5.7660862e-08
      0.82159376       0.99999742    6.1390753e-08
      0.83488266       0.99999733    6.5358840e-08
      0.84838205       0.99999725    6.9579597e-08
      0.86210331       0.99999716    7.4070137e-08
      0.87604662       0.99999706    7.8846729e-08
      0.89021820       0.99999697    8.3928073e-08
      0.90461815       0.99999687    8.9332248e-08
      0.91924620       0.99999676    9.5078803e-08
      0.93411575       0.99999666    1.0119114e-07
      0.94922712       0.99999655    1.0769132e-07
      0.96458024       0.99999643    1.1460248e-07
      0.98018238       0.99999632    1.2195100e-07
      0.99603344       0.99999620    1.2976294e-07
       1.0121411       0.99999607    1.3806807e-07
       1.0285138       0.99999594    1.4689798e-07
       1.0451517       0.99999581    1.5628402e-07
       1.0620546       0.99999567    1.6625906e-07
       1.0792313       0.99999553    1.7686082e-07
       1.0966914       0.99999538    1.8812942e-07
       1.1144251       0.99999523    2.0010103e-07
       1.1324521       0.99999508    2.1282403e-07
       1.1507620       0.99999492    2.2633854e-07
       1.1693759       0.99999475    2.4069930e-07
       1.1882943       0.99999458    2.5595623e-07
       1.2075173       0.99999440    2.7216348e-07
       1.2270444       0.99999422    2.8937116e-07
       1.2468912       0.99999403    3.0765043e-07
       1.2670576       0.99999383    3.2705530e-07
       1.2875514       0.99999363    3.4744676e-07
       1.3083766       0.99999343    3.6910882e-07
       1.3295385       0.99999321    3.9212162e-07
       1.3510428       0.99999299    4.1656688e-07
       1.3728953       0.99999276    4.4253782e-07
       1.3951004       0.99999253    4.7012902e-07
       1.4176644       0.99999229    4.9944166e-07
       1.4405952       0.99999204    5.3058055e-07
       1.4638945       0.99999178    5.6365543e-07
       1.4875724       0.99999152    5.9880077e-07
       1.5116325       0.99999124    6.3612994e-07
       1.5360821       0.99999096    6.7579450e-07
       1.5609267       0.99999067    7.1792399e-07
       1.5861741       0.99999037    7.6268343e-07
       1.6118283       0.99999006    8.1023527e-07
       1.6378996       0.99998975    8.6074828e-07
       1.6643901       0.99998942    9.1441173e-07
       1.6913109       0.99998909    9.7010777e-07
       1.7186664       0.99998874    1.0287174e-06
       1.7464637       0.99998839    1.0908718e-06
       1.7747124       0.99998803    1.1567790e-06
       1.8034178       0.99998765    1.2266698e-06
       1.8325847       0.99998727    1.3007762e-06
       1.8622265       0.99998687    1.3793736e-06
       1.8923462       0.99998646    1.4627066e-06
       1.9229549       0.99998605    1.5510850e-06
       1.9540557       0.99998562    1.6447897e-06
       1.9856606       0.99998518    1.7441601e-06
       2.0177791       0.99998473    1.8495443e-06
       2.0504144       0.99998427    1.9612913e-06
       2.0835763       0.99998381    2.0797817e-06
       2.1172788       0.99998333    2.2054422e-06
       2.1515220       0.99998284    2.3386789e-06
       2.1863202       0.99998235    2.4799768e-06
       2.2216851       0.99998186    2.6249236e-06
       2.2576168       0.99998135    2.7766828e-06
       2.2941311       0.99998084    2.9372225e-06
       2.3312365       0.99998032    3.1070351e-06
       2.3689462       0.99997981    3.2866927e-06
       2.4072602       0.99997929    3.4767111e-06
       2.4461966       0.99997879    3.6777278e-06
       2.4857602       0.99997830    3.8903656e-06
       2.5259657       0.99997784    4.1152896e-06
       2.5668235       0.99997742    4.3532336e-06
       2.6083387       0.99997708    4.6049187e-06
       2.6505274       0.99997687    4.8711682e-06
       2.6933951       0.99997694    5.1527995e-06
       2.7369592       0.99997795    5.4507196e-06
       2.7595595       0.99998686    5.6076373e-06
       2.7596824       0.99998687    7.2700869e-07
       2.7724564       0.99997842    7.3515249e-07
       2.7750813       0.99997809    7.3782664e-07
       2.8199645       0.99997531    7.8469761e-07
       2.8655748       0.99997367    8.3454680e-07
       2.9119254       0.99997228    8.8756384e-07
       2.9590231       0.99997099    9.4394870e-07
       3.0068815       0.99996973    1.0039143e-06
       3.0555152       0.99996849    1.0676885e-06
       3.1049390       0.99996724    1.1355164e-06
       3.1551527       0.99996597    1.2076483e-06
       3.2061880       0.99996469    1.2840457e-06
       3.2580450       0.99996337    1.3634971e-06
       3.3107404       0.99996203    1.4478592e-06
       3.3642919       0.99996065    1.5374459e-06
       3.4187085       0.99995923    1.6325733e-06
       3.4739991       0.99995778    1.7335819e-06
       3.5301927       0.99995628    1.8408476e-06
       3.5872893       0.99995474    1.9547501e-06
       3.6453090       0.99995315    2.0756935e-06
       3.7042733       0.99995151    2.2041264e-06
       3.7641820       0.99994982    2.3404954e-06
       3.8250688       0.99994808    2.4853150e-06
       3.8869339       0.99994628    2.6390922e-06
       3.9498009       0.99994443    2.8023865e-06
       4.0136822       0.99994251    2.9757737e-06
       4.0786037       0.99994054    3.1598858e-06
       4.1445651       0.99993850    3.3553815e-06
       4.2116075       0.99993639    3.5630258e-06
       4.2797315       0.99993422    3.7834646e-06
       4.3489512       0.99993198    4.0175664e-06
       4.4192808       0.99992967    4.2616336e-06
       4.4907674       0.99992728    4.5188674e-06
       4.5633951       0.99992481    4.7916382e-06
       4.6372135       0.99992225    5.0808599e-06
       4.7122054       0.99991962    5.3875457e-06
       4.7884233       0.99991689    5.7127254e-06
       4.8658866       0.99991408    6.0575762e-06
       4.9445758       0.99991117    6.4232022e-06
       5.0245484       0.99990817    6.8109229e-06
       5.1058255       0.99990506    7.2220390e-06
       5.1884070       0.99990186    7.6579578e-06
       5.2723134       0.99989854    8.1201761e-06
       5.3575889       0.99989512    8.6103009e-06
       5.4442573       0.99989159    9.1300740e-06
       5.5323191       0.99988793    9.6812029e-06
       5.6217977       0.99988416    1.0265511e-05
       5.7127175       0.99988026    1.0885158e-05
       5.8051040       0.99987624    1.1542140e-05
       5.8990118       0.99987207    1.2238867e-05
       5.9944134       0.99986778    1.2977546e-05
       6.0913649       0.99986334    1.3760863e-05
       6.1898967       0.99985876    1.4591554e-05
       6.2900088       0.99985403    1.5472296e-05
       6.3917644       0.99984914    1.6406295e-05
       6.4951307       0.99984410    1.7396447e-05
       6.6001730       0.99983890    1.8446483e-05
       6.7069269       0.99983354    1.9550284e-05
       6.8154296       0.99982800    2.0703761e-05
       6.9256432       0.99982227    2.1924994e-05
       7.0376819       0.99981635    2.3218521e-05
       7.1515072       0.99981023    2.4588240e-05
       7.2671577       0.99980392    2.6038586e-05
       7.3847182       0.99979740    2.7574778e-05
       7.5041460       0.99979067    2.9201485e-05
       7.6255297       0.99978371    3.0924237e-05
       7.7488703       0.99977654    3.2748591e-05
       7.8742157       0.99976913    3.4680588e-05
       8.0015650       0.99976148    3.6726401e-05
       8.1309678       0.99975359    3.8892881e-05
       8.2624769       0.99974545    4.1187191e-05
       8.3961488       0.99973704    4.3617198e-05
       8.5319265       0.99972838    4.6190141e-05
       8.6699241       0.99971944    4.8914958e-05
       8.8101422       0.99971022    5.1800522e-05
       8.9526424       0.99970071    5.4856353e-05
       9.0974245       0.99969091    5.8092168e-05
       9.2446222       0.99968080    6.1519972e-05
       9.3940984       0.99967039    6.5148520e-05
       9.5460617       0.99965966    6.8992091e-05
       9.7004413       0.99964861    7.3061830e-05
       9.8573876       0.99963723    7.7372803e-05
       10.016825       0.99962553    8.1937224e-05
       10.178829       0.99961349    8.6770744e-05
       10.343399       0.99960113    9.1875688e-05
       10.510703       0.99958842    9.7247579e-05
       10.680747       0.99957533    0.00010293395
       10.853533       0.99956188    0.00010895267
       11.029057       0.99954814    0.00011529978
       11.207413       0.99953402    0.00012188850
       11.388703       0.99951942    0.00012885495
       11.572928       0.99950443    0.00013621973
       11.760087       0.99948903    0.00014400407
       11.950289       0.99947326    0.00015223382
       12.100747       0.99946070    0.00015891296
       12.290514       0.99944469    0.00016753189
       12.489347       0.99942764    0.00017690946
       12.691354       0.99941008    0.00018681081
       12.896621       0.99939192    0.00019739238
       13.105215       0.99937331    0.00020880993
       13.317177       0.99935450    0.00022113660
       13.532577       0.99933566    0.00023419097
       13.751459       0.99931674    0.00024747770
       13.973867       0.99929720    0.00026109537
       14.199895       0.99927688    0.00027573008
       14.429559       0.99925647    0.00029154781
       14.662940       0.99923635    0.00030786777
       14.900109       0.99921590    0.00032438089
       15.141099       0.99919467    0.00034148390
       15.386002       0.99917290    0.00035948885
       15.634856       0.99915068    0.00037844252
       15.887738       0.99912805    0.00039839640
       16.144708       0.99910524    0.00041940148
       16.405827       0.99908211    0.00044116236
       16.671182       0.99905843    0.00046395147
       16.940817       0.99903434    0.00048791657
       17.214822       0.99900985    0.00051312083
       17.493270       0.99898481    0.00053962737
       17.776208       0.99895952    0.00056825787
       18.063710       0.99893456    0.00059861808
       18.355881       0.99891010    0.00063060304
       18.652775       0.99888657    0.00066429305
       18.954474       0.99886500    0.00069759673
       19.261036       0.99884054    0.00072812736
       19.572577       0.99881129    0.00076589192
       19.889160       0.99878577    0.00081040983
       20.210847       0.99876527    0.00085459836
       20.537735       0.99874983    0.00090120011
       20.869923       0.99873424    0.00093630567
       21.207483       0.99870874    0.00097193585
       21.550485       0.99867115     0.0010225411
       21.850910       0.99865186     0.0010887989
       21.920022       0.99865078     0.0011017970
       22.274567       0.99865556     0.0011702970
       22.634818       0.99866499     0.0012074291
       23.000937       0.99864918     0.0012359154
       23.200646       0.99863064     0.0012575574
       23.450775       0.99860719     0.0013106054
       23.533211       0.99860069     0.0013301334
       23.913855       0.99859749     0.0014232223
       24.300631       0.99866315     0.0015228285
       24.500879       0.99871332     0.0015385144
       24.701551       0.99875195     0.0015068406
       25.101075       0.99871191     0.0014464152
       25.351023       0.99865059     0.0014637718
       25.701012       0.99859311     0.0015632136
       26.100848       0.99860995     0.0016745776
       26.500855       0.99865881     0.0017283760
       26.718671       0.99868293     0.0017211783
       27.150827       0.99862807     0.0017071721
       27.401045       0.99857144     0.0017384602
       27.407708       0.99857000     0.0017406931
       27.850990       0.99850472     0.0018938959
       28.201312       0.99855578     0.0020577782
       28.402229       0.99861203     0.0020749231
       28.535845       0.99863632     0.0020620631
       28.997416       0.99854757     0.0020186758
       29.109751       0.99849951     0.0020188943
       29.320402       0.99836752     0.0020401881
       29.510223       0.99818296     0.0020623648
       29.700383       0.99788073     0.0021512849
       29.800324       0.99763960     0.0022390036
       29.860613       0.99746109     0.0023533211
       29.940654       0.99719054     0.0025812149
       30.240061       0.99670339     0.0040077647
       30.319928       0.99642000     0.0044275368
       30.360020       0.99623172     0.0046873607
       30.390531       0.99578158     0.0049969623
       30.420357       0.99476364     0.0054460785
       30.430810       0.99480089     0.0064881898
       30.439776       0.99509939     0.0067193483
       30.480185       0.99563611     0.0080467562
       30.500431       0.99600422     0.0089358832
       30.510188       0.99635022     0.0092786299
       30.530473       0.99716567     0.0098627177
       30.550032       0.99806956      0.010226054
       30.560574       0.99857606      0.010263688
       30.590735       0.99969932      0.010202616
       30.630034        1.0012190      0.010311022
       30.650478        1.0022009      0.010166487
       30.670192        1.0032815     0.0096980706
       30.680817        1.0037855     0.0092196915
       30.710455        1.0045654     0.0076166267
       30.720347        1.0046661     0.0070524205
       30.730246        1.0048944     0.0066064710
       30.740151        1.0046585     0.0053087290
       30.750062        1.0039692     0.0050839378
       30.770667        1.0030842     0.0047223184
       30.779834        1.0027682     0.0046396561
       30.790536        1.0023314     0.0046115905
       30.799714        1.0019962     0.0046300138
       30.810430        1.0015415     0.0047491367
       30.820386        1.0011259     0.0049276808
       30.830349        1.0005195     0.0051974768
       30.840319        1.0002544     0.0064374530
       30.860277        1.0010343     0.0074375263
       30.870266        1.0015262     0.0078710832
       30.880262        1.0019996     0.0082044345
       30.890263        1.0026610     0.0083450180
       30.900272        1.0031947     0.0083323016
       30.910286        1.0037595     0.0081852249
       30.960458        1.0054529     0.0070718708
       30.980572        1.0061339     0.0068464595
       30.990639        1.0066920     0.0066567959
       30.999937        1.0071420     0.0055172767
       31.020879        1.0068352     0.0050176326
       31.030196        1.0068893     0.0046708392
       31.040295        1.0070412     0.0042537891
       31.050401        1.0070291     0.0038211500
       31.080758        1.0068778     0.0027081634
       31.089330        1.0067568     0.0022555359
       31.104930        1.0063026     0.0019372687
       31.109613        1.0062326     0.0018478597
       31.120545        1.0060930     0.0016486177
       31.130703        1.0059706     0.0014111303
       31.150256        1.0056036    0.00093843403
       31.169834        1.0051469    0.00065093571
       31.180025        1.0049089    0.00054610291
       31.190222        1.0046852    0.00047522557
       31.200425        1.0044782    0.00044260692
       31.209850        1.0043146    0.00041712250
       31.220853        1.0041384    0.00039969192
       31.239732        1.0038819    0.00038022731
       31.270461        1.0035360    0.00036123071
       31.300459        1.0032601    0.00035044063
       31.380473        1.0026994    0.00033347084
       31.480069        1.0022063    0.00032440523
       31.660134        1.0016022    0.00032096655
       32.040586        1.0008574    0.00032706096
       32.459244        1.0003730    0.00034023948
       32.984272       0.99997280    0.00035726369
       33.517772       0.99967930    0.00037513870
       34.059923       0.99944459    0.00039390827
       34.610816       0.99924582    0.00041361629
       35.170542       0.99907057    0.00043430864
       35.739395       0.99891139    0.00045603851
       36.317481       0.99876354    0.00047885706
       36.904907       0.99862383    0.00050281779
       37.501777       0.99849002    0.00052797165
       38.108312       0.99836049    0.00055438788
       38.724748       0.99823410    0.00058212957
       39.351085       0.99811032    0.00061125274
       39.987567       0.99798781    0.00064046688
       40.634320       0.99786544    0.00067095039
       41.291609       0.99774288    0.00070288720
       41.959433       0.99761988    0.00073634160
       42.638067       0.99749611    0.00077138720
       43.327655       0.99737132    0.00080809953
       44.028498       0.99724528    0.00084656363
       44.740598       0.99711791    0.00088685696
       45.464271       0.99698899    0.00092880241
       46.199686       0.99685822    0.00097257646
       46.946837       0.99672551     0.0010184045
       47.706250       0.99659083     0.0010664033
       48.477742       0.99645515     0.0011166551
       49.261872       0.99631733     0.0011674130
       50.058645       0.99617651     0.0012204133
       50.868255       0.99603370     0.0012758212
       51.691119       0.99589101     0.0013322787
       52.527019       0.99574461     0.0013860852
       53.376607       0.99559174     0.0014420700
       54.240126       0.99543459     0.0015003322
       55.117339       0.99527312     0.0015609270
       56.008714       0.99510723     0.0016239668
       56.914759       0.99493669     0.0016895720
       57.835219       0.99476142     0.0017578103
       58.770614       0.99457930     0.0018288106
       59.721225       0.99439117     0.0019063127
       60.687347       0.99420108     0.0019910675
       61.668673       0.99400926     0.0020795740
       62.666099       0.99381534     0.0021720189
       63.679635       0.99362010     0.0022679164
       64.709605       0.99342173     0.0023647282
       65.756347       0.99321984     0.0024656757
       66.819860       0.99301776     0.0025709282
       67.900858       0.99282058     0.0026775192
       68.998970       0.99261606     0.0027678703
       70.114941       0.99239772     0.0028612748
       71.249174       0.99216976     0.0029578546
       72.401253       0.99193225     0.0030576388
       73.572425       0.99168487     0.0031641835
       74.762268       0.99143139     0.0032780897
       75.971672       0.99117302     0.0033961092
       77.200173       0.99090748     0.0035183509
       78.449198       0.99063446     0.0036476410
       79.717770       0.99035694     0.0037841348
       81.007396       0.99007589     0.0039257981
       82.317567       0.98979071     0.0040727304
       83.648799       0.98950489     0.0042251456
       85.001645       0.98921781     0.0043775305
       86.376699       0.98892317     0.0045279837
       87.773975       0.98862150     0.0046835922
       89.193452       0.98832037     0.0048445193
       90.636400       0.98801639     0.0050022687
       92.102165       0.98772150     0.0051640615
       93.591384       0.98743620     0.0053017509
       95.105473       0.98711993     0.0053968949
       96.643737       0.98676741     0.0054937076
       98.206902       0.98638983     0.0055922563
       99.794952       0.98598707     0.0056902732
       101.40948       0.98555493     0.0057891056
       103.04970       0.98508502     0.0058896144
       104.71643       0.98456918     0.0060247312
       106.40963       0.98404765     0.0062087548
       108.13114       0.98353973     0.0063984831
       109.88005       0.98302009     0.0065939498
       111.65729       0.98249067     0.0068088241
       113.46284       0.98196943     0.0070418197
       115.29879       0.98147338     0.0072589423
       117.16302       0.98095957     0.0074345573
       119.05879       0.98040424     0.0076145953
       120.98385       0.97983341     0.0077988147
       122.94049       0.97926316     0.0079839754
       124.92934       0.97869048     0.0081433866
       126.94993       0.97807673     0.0082563861
       129.00325       0.97743161     0.0083709678
       131.08984       0.97673883     0.0084303582
       133.21012       0.97597767     0.0084900878
       135.36462       0.97516121     0.0085502277
       137.55410       0.97429121     0.0086108069
       139.77884       0.97336757     0.0086718312
       142.03962       0.97238884     0.0087332568
       144.33708       0.97135437     0.0087951223
       146.67155       0.97026956     0.0088574263
       149.04389       0.96911780     0.0088885241
       151.45445       0.96787831     0.0089144336
       153.90414       0.96654986     0.0089404548
       156.39352       0.96512968     0.0089665525
       158.92299       0.96361033     0.0089927034
       161.49355       0.96197875     0.0090189479
       164.10539       0.96022180     0.0090600522
       166.75981       0.95834580     0.0091221571
       169.45703       0.95631475     0.0091846869
       172.19772       0.95412898     0.0093135143
       174.98306       0.95183168     0.0094863072
       177.81332       0.94938839     0.0096623202
       180.68923       0.94673465     0.0098415255
       183.61155       0.94385769      0.010082100
       186.58137       0.94075496      0.010378048
       189.59924       0.93735861      0.010724026
       192.66573       0.93366583      0.011258289
       195.78202       0.92970569      0.011913407
       198.94873       0.92541763      0.012724119
       202.16647       0.92079068      0.013724441
       205.43656       0.91565196      0.014915530
       208.75932       0.91009840      0.016625483
       212.13579       0.90427720      0.018689786
       215.56667       0.89808216      0.021132633
       219.05345       0.89126183      0.023983106
       220.61254       0.88829907      0.025567023
       223.79829       0.88120871      0.028713628
       224.60915       0.87962900      0.029902197
       225.94600       0.87677028      0.031485268
       229.60046       0.86849820      0.036197874
       232.18024       0.86217433      0.040224993
       233.93255       0.85797249      0.043369994
       237.51772       0.84854624      0.049960399
       240.27955       0.84083271      0.056206750
       242.15674       0.83523947      0.060650733
       243.10637       0.83247699      0.063382962
       246.00050       0.82296208      0.071774284
       247.96850       0.81525930      0.078249831
       248.96436       0.81145298      0.087463531
       249.27771       0.81151510      0.088761807
       253.30979       0.80390134       0.10710831
       257.40657       0.79639502       0.12897148
       261.57015       0.79475306       0.15522426
       263.79628       0.79667367       0.16814925
       267.20744       0.79470859       0.18310601
       267.91938       0.79384099       0.18793270
       272.25292       0.79754166       0.21933729
       276.65608       0.80825127       0.24926552
       281.13067       0.82510637       0.27876014
       285.67800       0.84824103       0.30489029
       289.68283       0.87246438       0.32348963
       293.29557       0.89449480       0.33496809
       298.03906       0.92679791       0.35043310
       300.93265       0.94703927       0.35410749
       302.71514       0.95960853       0.35517159
       307.61124       0.99182570       0.35807332
       312.58635        1.0231827       0.35236610
       317.64200        1.0508919       0.34511177
       322.77983        1.0769608       0.33591395
       328.00066        1.1042642       0.32575287
       331.50869        1.1225355       0.31348231
       336.06079        1.1417441       0.29408946
       341.49608        1.1575749       0.27021389
       347.01973        1.1683305       0.24594176
       352.63271        1.1728938       0.22431434
       358.33598        1.1792900       0.21015466
       360.41933        1.1845686       0.19606184
       362.52705        1.1862427       0.19040607
       366.81731        1.1862584       0.17113070
       366.94976        1.1862135       0.17058194
       372.88496        1.1818722       0.14781641
       378.91570        1.1735142       0.12855070
       385.04425        1.1620663       0.11408912
       389.88758        1.1535870       0.10731014
       393.58330        1.1476659       0.10503028
       399.94919        1.1439938       0.10126393
       405.17729        1.1432044      0.096755558
       407.84293        1.1438905      0.093217278
       410.54387        1.1439105      0.088807961
       413.28083        1.1438952      0.083409000
       415.00310        1.1431212      0.079538554
       421.71514        1.1371945      0.066213401
       424.60360        1.1336973      0.058615151
       427.53190        1.1279355      0.054618399
       433.51136        1.1221622      0.049729410
       436.56426        1.1211002      0.044367107
       439.66046        1.1155718      0.033028020
       442.80089        1.1053129      0.027881161
       445.98651        1.0951862      0.027137932
       449.21830        1.0880292      0.027328152
       451.20294        1.0837113      0.027691496
       458.50129        1.0718529      0.029055279
       465.91703        1.0622133      0.030486069
       473.45363        1.0538503      0.031719028
       481.11108        1.0462244      0.032826560
       488.89303        1.0390700      0.033832884
       496.79944        1.0321906      0.034869823
       504.83420        1.0255472      0.035938574
       512.99936        1.0190307      0.037040249
       521.29706        1.0124159      0.038200625
       529.72950        1.0060155      0.039981540
       538.29664       0.99998324      0.041739831
       547.00301       0.99402673      0.043442163
       555.85108       0.98807200      0.045213992
       564.84080       0.98208920      0.047057914
       573.97724       0.97598453      0.048977254
       583.26042       0.96965392      0.051216523
       592.69577       0.96338265      0.053913309
       602.28046       0.95717645      0.056763292
       612.02309       0.95102907      0.060041328
       621.92073       0.94509422      0.063508207
       631.97942       0.93924692      0.067175490
       642.20246       0.93349124      0.071054943
