;  Optical constants for tetragonal TiO2, ordinary ray
;  
;  Concatenation of:
;
;  TiO2_llnl_cxro + TiO2_palik
;
;    Lambda (A)            n            k
;-----------------------------------------
      0.12398425       0.99999992    2.8969107e-11
      0.12460729       0.99999992    2.9574503e-11
      0.12523662       0.99999991    3.0195651e-11
      0.12651454       0.99999991    3.1486761e-11
      0.12848109       0.99999991    3.3555681e-11
      0.13050974       0.99999991    3.5795044e-11
      0.13189814       0.99999990    3.7392505e-11
      0.13331640       0.99999990    3.9078915e-11
      0.13550191       0.99999990    4.1790608e-11
      0.13776028       0.99999990    4.4738567e-11
      0.13930815       0.99999989    4.6847307e-11
      0.14089119       0.99999989    4.9080044e-11
      0.14333439       0.99999989    5.2685051e-11
      0.14586382       0.99999988    5.6622506e-11
      0.14760030       0.99999988    5.9453156e-11
      0.14937861       0.99999988    6.2460830e-11
      0.15064915       0.99999988    6.4680484e-11
      0.15212791       0.99999987    6.7337911e-11
      0.15344585       0.99999987    6.9774681e-11
      0.15498031       0.99999987    7.2694179e-11
      0.15634836       0.99999987    7.5372415e-11
      0.15774078       0.99999986    7.8173646e-11
      0.15915822       0.99999986    8.1106181e-11
      0.16078881       0.99999986    8.4580873e-11
      0.16313717       0.99999985    8.9782667e-11
      0.16421755       0.99999985    9.2255990e-11
      0.16540055       0.99999985    9.5022009e-11
      0.16709468       0.99999985    9.9094777e-11
      0.16868605       0.99999984    1.0303827e-10
      0.17030804       0.99999984    1.0717723e-10
      0.17220035       0.99999984    1.1216171e-10
      0.17462570       0.99999983    1.1881019e-10
      0.17712036       0.99999983    1.2595179e-10
      0.17968732       0.99999982    1.3362809e-10
      0.18232978       0.99999982    1.4188954e-10
      0.18395289       0.99999981    1.4715480e-10
      0.18552185       0.99999981    1.5238187e-10
      0.18813998       0.99999981    1.6141936e-10
      0.19074500       0.99999980    1.7080321e-10
      0.19372539       0.99999979    1.8202868e-10
      0.19680040       0.99999979    1.9417866e-10
      0.19901164       0.99999978    2.0329256e-10
      0.20160041       0.99999978    2.1436472e-10
      0.20392146       0.99999977    2.2467910e-10
      0.20664042       0.99999977    2.3722826e-10
      0.20733152       0.99999976    2.4049674e-10
      0.20823690       0.99999976    2.4482905e-10
      0.21193889       0.99999975    2.6316237e-10
      0.21376595       0.99999975    2.7258402e-10
      0.21551234       0.99999975    2.8182587e-10
      0.21828213       0.99999974    2.9696654e-10
      0.22140045       0.99999973    3.1473977e-10
      0.22542591       0.99999972    3.3885936e-10
      0.22749404       0.99999972    3.5176224e-10
      0.22960046       0.99999971    3.6527763e-10
      0.23174626       0.99999971    3.7945073e-10
      0.23393255       0.99999970    3.9430890e-10
      0.23616048       0.99999969    4.0990434e-10
      0.23843125       0.99999969    4.2626778e-10
      0.24074612       0.99999968    4.4345935e-10
      0.24310637       0.99999968    4.6151535e-10
      0.24551337       0.99999967    4.8050252e-10
      0.24796850       0.99999966    5.0046434e-10
      0.25047323       0.99999966    5.2141080e-10
      0.25302908       0.99999965    5.4345997e-10
      0.25563763       0.99999964    5.6668717e-10
      0.25830052       0.99999963    5.9115449e-10
      0.26101947       0.99999963    6.1696029e-10
      0.26379628       0.99999962    6.4417409e-10
      0.26663280       0.99999961    6.7290388e-10
      0.26953098       0.99999960    7.0324666e-10
      0.27369592       0.99999959    7.4864735e-10
      0.27861629       0.99999957    8.0504549e-10
      0.28306906       0.99999956    8.5876551e-10
      0.28833547       0.99999954    9.2574551e-10
      0.29310697       0.99999953    9.8964954e-10
      0.29590513       0.99999952    1.0286482e-09
      0.29875723       0.99999951    1.0695636e-09
      0.30166484       0.99999950    1.1125413e-09
      0.30388297       0.99999949    1.1461812e-09
      0.30689171       0.99999948    1.1930501e-09
      0.30996062       0.99999947    1.2423126e-09
      0.31388418       0.99999946    1.3074011e-09
      0.31790833       0.99999945    1.3767964e-09
      0.32203701       0.99999943    1.4508436e-09
      0.32627434       0.99999942    1.5299197e-09
      0.33062467       0.99999940    1.6142458e-09
      0.33509257       0.99999938    1.7044268e-09
      0.33968288       0.99999937    1.8009897e-09
      0.34411393       0.99999935    1.8980679e-09
      0.34729482       0.99999934    1.9701486e-09
      0.35123017       0.99999932    2.0621354e-09
      0.35525573       0.99999931    2.1594559e-09
      0.35937464       0.99999929    2.2621004e-09
      0.36359018       0.99999927    2.3709541e-09
      0.36681731       0.99999926    2.4568994e-09
      0.37121033       0.99999924    2.5776332e-09
      0.37570985       0.99999923    2.7058732e-09
      0.38031979       0.99999921    2.8414611e-09
      0.38385217       0.99999919    2.9487746e-09
      0.38866536       0.99999917    3.0998497e-09
      0.39360079       0.99999915    3.2607018e-09
      0.39738542       0.99999913    3.3882506e-09
      0.40254627       0.99999911    3.5681582e-09
      0.40784293       0.99999909    3.7601685e-09
      0.41328083       0.99999906    3.9577853e-09
      0.41390721       0.99999906    3.9817936e-09
      0.41996528       0.99999903    4.2197261e-09
      0.42060069       0.99999903    4.2450000e-09
      0.42675785       0.99999900    4.4985654e-09
      0.42740368       0.99999900    4.5255007e-09
      0.43365996       0.99999897    4.7956604e-09
      0.43431774       0.99999896    4.8244235e-09
      0.44067464       0.99999893    5.1123152e-09
      0.44134131       0.99999893    5.1428891e-09
      0.44780188       0.99999890    5.4496381e-09
      0.44848058       0.99999889    5.4822717e-09
      0.45504485       0.99999886    5.8090922e-09
      0.45573397       0.99999886    5.8438366e-09
      0.46240522       0.99999883    6.1920676e-09
      0.46310473       0.99999882    6.2290458e-09
      0.46988471       0.99999879    6.6000560e-09
      0.47059633       0.99999878    6.6394945e-09
      0.47748323       0.99999875    7.0346652e-09
      0.47820700       0.99999874    7.0767214e-09
      0.48520618       0.99999871    7.4977032e-09
      0.48594214       0.99999870    7.5425345e-09
      0.49305362       0.99999866    7.9909810e-09
      0.49380180       0.99999866    8.0387590e-09
      0.50102946       0.99999862    8.5165737e-09
      0.50178785       0.99999862    8.5673490e-09
      0.50913375       0.99999857    9.0763810e-09
      0.50990430       0.99999857    9.1304559e-09
      0.51736847       0.99999853    9.6726366e-09
      0.51815118       0.99999852    9.7302134e-09
      0.52573570       0.99999848    1.0307633e-08
      0.52653277       0.99999847    1.0369086e-08
      0.53423986       0.99999843    1.0984148e-08
      0.53504909       0.99999842    1.1049554e-08
      0.54288101       0.99999838    1.1704680e-08
      0.54370234       0.99999837    1.1774255e-08
      0.55166142       0.99999833    1.2471944e-08
      0.55249725       0.99999832    1.2546143e-08
      0.56058349       0.99999827    1.3289056e-08
      0.56143388       0.99999827    1.3368178e-08
      0.56964967       0.99999821    1.4159222e-08
      0.57051468       0.99999821    1.4243564e-08
      0.57886523       0.99999816    1.5086177e-08
      0.57974222       0.99999815    1.5175792e-08
      0.58822755       0.99999809    1.6073006e-08
      0.58911915       0.99999809    1.6168487e-08
      0.59774203       0.99999803    1.7124040e-08
      0.59864539       0.99999803    1.7225415e-08
      0.60740863       0.99999797    1.8242773e-08
      0.60832953       0.99999796    1.8351046e-08
      0.61723320       0.99999790    1.9434198e-08
      0.61816874       0.99999789    1.9549458e-08
      0.62721577       0.99999783    2.0702557e-08
      0.62816593       0.99999783    2.0825206e-08
      0.63736268       0.99999776    2.2053262e-08
      0.63832742       0.99999775    2.2183728e-08
      0.64767070       0.99999769    2.3491008e-08
      0.64864996       0.99999768    2.3629778e-08
      0.65814639       0.99999761    2.5021513e-08
      0.65914359       0.99999761    2.5169524e-08
      0.66878971       0.99999753    2.6650619e-08
      0.66980498       0.99999753    2.6808484e-08
      0.67960781       0.99999745    2.8385204e-08
      0.68063752       0.99999745    2.8552943e-08
      0.69060079       0.99999737    3.0231591e-08
      0.69164482       0.99999736    3.0409734e-08
      0.70176851       0.99999728    3.2195985e-08
      0.70283465       0.99999728    3.2386500e-08
      0.71312284       0.99999719    3.4288269e-08
      0.71419910       0.99999719    3.4489741e-08
      0.72465574       0.99999710    3.6513838e-08
      0.72575013       0.99999709    3.6728393e-08
      0.73637533       0.99999701    3.8882056e-08
      0.73749227       0.99999700    3.9111346e-08
      0.74828597       0.99999691    4.1403080e-08
      0.74941671       0.99999690    4.1646211e-08
      0.76038766       0.99999681    4.4084770e-08
      0.76154127       0.99999680    4.4344473e-08
      0.77268974       0.99999670    4.6939693e-08
      0.77385686       0.99999669    4.7214876e-08
      0.78518752       0.99999660    4.9976629e-08
      0.78637278       0.99999659    5.0269199e-08
      0.79788566       0.99999648    5.3206768e-08
      0.79909414       0.99999647    5.3519062e-08
      0.81078912       0.99999637    5.6643902e-08
      0.81201576       0.99999636    5.6975853e-08
      0.82390321       0.99999625    6.0300116e-08
      0.82515340       0.99999624    6.0654182e-08
      0.83722795       0.99999613    6.4189809e-08
      0.83849626       0.99999611    6.4565943e-08
      0.85077472       0.99999600    6.8328579e-08
      0.85206101       0.99999599    6.8727769e-08
      0.86453191       0.99999587    7.2728249e-08
      0.86584203       0.99999586    7.3153869e-08
      0.87851717       0.99999573    7.7409544e-08
      0.87984509       0.99999572    7.7861123e-08
      0.89272445       0.99999559    8.2386564e-08
      0.89407635       0.99999558    8.2867658e-08
      0.90716643       0.99999545    8.7681217e-08
      0.90853583       0.99999544    8.8191257e-08
      0.92183655       0.99999530    9.3309281e-08
      0.92323000       0.99999529    9.3852360e-08
      0.93674824       0.99999515    9.9294673e-08
      0.93816588       0.99999513    9.9872674e-08
      0.95189443       0.99999499    1.0565673e-07
      0.95333633       0.99999497    1.0627202e-07
      0.96729692       0.99999482    1.1242509e-07
      0.96875562       0.99999481    1.1307621e-07
      0.98294103       0.99999465    1.1961696e-07
      0.98442388       0.99999464    1.2030937e-07
      0.99884192       0.99999448    1.2726311e-07
       1.0003490       0.99999446    1.2799923e-07
       1.0149914       0.99999430    1.3538621e-07
       1.0165310       0.99999428    1.3617273e-07
       1.0314143       0.99999411    1.4402709e-07
       1.0329697       0.99999409    1.4485844e-07
       1.0480937       0.99999392    1.5320609e-07
       1.0496732       0.99999390    1.5408903e-07
       1.0650470       0.99999372    1.6295964e-07
       1.0666596       0.99999370    1.6390203e-07
       1.0822742       0.99999351    1.7332590e-07
       1.0839111       0.99999350    1.7432637e-07
       1.0997751       0.99999330    1.8433822e-07
       1.1014360       0.99999328    1.8539986e-07
       1.1175592       0.99999308    1.9603585e-07
       1.1192541       0.99999306    1.9716820e-07
       1.1356365       0.99999286    2.0846818e-07
       1.1373554       0.99999284    2.0966900e-07
       1.1540074       0.99999263    2.2167454e-07
       1.1557501       0.99999260    2.2294710e-07
       1.1726719       0.99999238    2.3569799e-07
       1.1744492       0.99999236    2.3705443e-07
       1.1916406       0.99999214    2.5059587e-07
       1.1934415       0.99999211    2.5203244e-07
       1.2109138       0.99999188    2.6641328e-07
       1.2127497       0.99999186    2.6794370e-07
       1.2305030       0.99999162    2.8321505e-07
       1.2323621       0.99999159    2.8483458e-07
       1.2504021       0.99999134    3.0104735e-07
       1.2522928       0.99999132    3.0276829e-07
       1.2706260       0.99999106    3.1998256e-07
       1.2725470       0.99999103    3.2180936e-07
       1.2890856       0.99999080    3.3797587e-07
       1.2911771       0.99999077    3.4007508e-07
       1.3059222       0.99999056    3.5503059e-07
       1.3120610       0.99999047    3.6143349e-07
       1.3230632       0.99999031    3.7303051e-07
       1.3332830       0.99999016    3.8407993e-07
       1.3403703       0.99999006    3.9182341e-07
       1.3548474       0.99998984    4.0808726e-07
       1.3578387       0.99998980    4.1148291e-07
       1.3756158       0.99998953    4.3219940e-07
       1.3767614       0.99998951    4.3357004e-07
       1.3935512       0.99998926    4.5386745e-07
       1.3990297       0.99998917    4.6065881e-07
       1.4117997       0.99998897    4.7665660e-07
       1.4216568       0.99998882    4.8935467e-07
       1.4302024       0.99998869    5.0047914e-07
       1.4446523       0.99998846    5.1978324e-07
       1.4489219       0.99998839    5.2554722e-07
       1.4677903       0.99998809    5.5170971e-07
       1.4680180       0.99998809    5.5203329e-07
       1.4869783       0.99998778    5.7926076e-07
       1.4917624       0.99998770    5.8631489e-07
       1.5064915       0.99998746    6.0826326e-07
       1.5158889       0.99998731    6.2263938e-07
       1.5261478       0.99998714    6.3849851e-07
       1.5404086       0.99998690    6.6113045e-07
       1.5461311       0.99998680    6.7030775e-07
       1.5653233       0.99998648    7.0187504e-07
       1.5662487       0.99998646    7.0341320e-07
       1.5866938       0.99998611    7.3825060e-07
       1.5906408       0.99998604    7.4514852e-07
       1.6074712       0.99998575    7.7487205e-07
       1.6163693       0.99998560    7.9099806e-07
       1.6283721       0.99998539    8.1297846e-07
       1.6425127       0.99998514    8.3955816e-07
       1.6496042       0.99998501    8.5302792e-07
       1.6690775       0.99998466    8.9096514e-07
       1.6711720       0.99998463    8.9508829e-07
       1.6930800       0.99998423    9.3929073e-07
       1.6960747       0.99998418    9.4548074e-07
       1.7150954       0.99998383    9.8521206e-07
       1.7235068       0.99998367    1.0032300e-06
       1.7376910       0.99998341    1.0339378e-06
       1.7513829       0.99998316    1.0643434e-06
       1.7603897       0.99998299    1.0845555e-06
       1.7797106       0.99998263    1.1289977e-06
       1.7834328       0.99998256    1.1376501e-06
       1.8065605       0.99998212    1.1927411e-06
       1.8084974       0.99998208    1.1974653e-06
       1.8302960       0.99998166    1.2511998e-06
       1.8377457       0.99998152    1.2700172e-06
       1.8541087       0.99998120    1.3117822e-06
       1.8674717       0.99998094    1.3467265e-06
       1.8782647       0.99998073    1.3752466e-06
       1.8976755       0.99998035    1.4278200e-06
       1.9027663       0.99998025    1.4417531e-06
       1.9276158       0.99997976    1.5114338e-06
       1.9283713       0.99997974    1.5136009e-06
       1.9528154       0.99997926    1.5844502e-06
       1.9595592       0.99997912    1.6044654e-06
       1.9783668       0.99997874    1.6608725e-06
       1.9912542       0.99997848    1.7004552e-06
       2.0042717       0.99997822    1.7408608e-06
       2.0234629       0.99997783    1.8018763e-06
       2.0305314       0.99997769    1.8245863e-06
       2.0561883       0.99997716    1.9089836e-06
       2.0571470       0.99997714    1.9121709e-06
       2.0837689       0.99997660    2.0026070e-06
       2.0894473       0.99997648    2.0223446e-06
       2.1110889       0.99997604    2.0983661e-06
       2.1232398       0.99997579    2.1420324e-06
       2.1387657       0.99997547    2.1984175e-06
       2.1575837       0.99997509    2.2683564e-06
       2.1667992       0.99997490    2.3029681e-06
       2.1924790       0.99997438    2.4016837e-06
       2.1948000       0.99997433    2.4106979e-06
       2.2235339       0.99997375    2.5246664e-06
       2.2279410       0.99997366    2.5425319e-06
       2.2526208       0.99997317    2.6436345e-06
       2.2639777       0.99997295    2.6911995e-06
       2.2820587       0.99997259    2.7677224e-06
       2.3005973       0.99997224    2.8479158e-06
       2.3118450       0.99997203    2.8970817e-06
       2.3378081       0.99997155    3.0131109e-06
       2.3419768       0.99997148    3.0319359e-06
       2.3729043       0.99997096    3.1745785e-06
       2.3756186       0.99997092    3.1873523e-06
       2.4037272       0.99997051    3.3210133e-06
       2.4140424       0.99997040    3.3711119e-06
       2.4353614       0.99997018    3.4757537e-06
       2.4530886       0.99997017    3.5646092e-06
       2.4668573       0.99997018    3.6343417e-06
       2.4927620       0.99997530    3.7686679e-06
       2.4964110       0.99997603    3.7877735e-06
       2.4965115       0.99997603    5.8784433e-07
       2.4991786       0.99997192    5.9026230e-07
       2.5318409       0.99996857    6.2036586e-07
       2.5330824       0.99996851    6.2153449e-07
       2.5648376       0.99996710    6.5193709e-07
       2.5740550       0.99996676    6.6096790e-07
       2.5987057       0.99996583    6.8553206e-07
       2.6156849       0.99996525    7.0284948e-07
       2.6323620       0.99996467    7.2014460e-07
       2.6579939       0.99996382    7.4735007e-07
       2.6669015       0.99996352    7.5696521e-07
       2.7009877       0.99996241    7.9462926e-07
       2.7017705       0.99996238    7.9550882e-07
       2.7369592       0.99996124    8.3589235e-07
       2.7446721       0.99996099    8.4494066e-07
       2.7724564       0.99996010    8.7808818e-07
       2.7890648       0.99995956    8.9836759e-07
       2.8088865       0.99995892    9.2298259e-07
       2.8341719       0.99995810    9.5513307e-07
       2.8456335       0.99995773    9.6995334e-07
       2.8800192       0.99995661    1.0154634e-06
       2.8826843       0.99995652    1.0190507e-06
       2.9207126       0.99995527    1.0712868e-06
       2.9266003       0.99995507    1.0795637e-06
       2.9583453       0.99995402    1.1249405e-06
       2.9739352       0.99995350    1.1477603e-06
       2.9969604       0.99995273    1.1820390e-06
       3.0220307       0.99995188    1.2201687e-06
       3.0365969       0.99995139    1.2427017e-06
       3.0709086       0.99995022    1.2970603e-06
       3.0757690       0.99995005    1.3048939e-06
       3.1159651       0.99994866    1.3711234e-06
       3.1205844       0.99994850    1.3789007e-06
       3.1572256       0.99994722    1.4415960e-06
       3.1710581       0.99994673    1.4657933e-06
       3.1979430       0.99994578    1.5135964e-06
       3.2223454       0.99994491    1.5580092e-06
       3.2397243       0.99994428    1.5901690e-06
       3.2744626       0.99994303    1.6559918e-06
       3.2826119       0.99994273    1.6716883e-06
       3.3248659       0.99994118    1.7548161e-06
       3.3274268       0.99994109    1.7599641e-06
       3.3691372       0.99993954    1.8452334e-06
       3.3812472       0.99993908    1.8705753e-06
       3.4127236       0.99993790    1.9375491e-06
       3.4359325       0.99993702    1.9880383e-06
       3.4574526       0.99993619    2.0356197e-06
       3.4915109       0.99993488    2.1126706e-06
       3.5023799       0.99993446    2.1376663e-06
       3.5479825       0.99993268    2.2449218e-06
       3.5484903       0.99993266    2.2461359e-06
       3.5947883       0.99993083    2.3592186e-06
       3.6053672       0.99993041    2.3856339e-06
       3.6412408       0.99992896    2.4766820e-06
       3.6636748       0.99992806    2.5349280e-06
       3.6889096       0.99992703    2.6015293e-06
       3.7229377       0.99992563    2.6934442e-06
       3.7378429       0.99992501    2.7343862e-06
       3.7831564       0.99992313    2.8616342e-06
       3.7857786       0.99992302    2.8691177e-06
       3.8361463       0.99992089    3.0160102e-06
       3.8443417       0.99992054    3.0404434e-06
       3.8854356       0.99991878    3.1649797e-06
       3.9065168       0.99991787    3.2303334e-06
       3.9360079       0.99991658    3.3232679e-06
       3.9697063       0.99991510    3.4319175e-06
       3.9879141       0.99991430    3.4916022e-06
       4.0339103       0.99991225    3.6457826e-06
       4.0398908       0.99991198    3.6661595e-06
       4.0932403       0.99990958    3.8518986e-06
       4.0991543       0.99990931    3.8729422e-06
       4.1466304       0.99990713    4.0446467e-06
       4.1654656       0.99990626    4.1142946e-06
       4.2000085       0.99990466    4.2441501e-06
       4.2328301       0.99990312    4.3703613e-06
       4.2547787       0.99990208    4.4561588e-06
       4.3012899       0.99989987    4.6422021e-06
       4.3109962       0.99989941    4.6816695e-06
       4.3671803       0.99989669    4.9150604e-06
       4.3708599       0.99989652    4.9306735e-06
       4.4248483       0.99989387    5.1635389e-06
       4.4415557       0.99989305    5.2372594e-06
       4.4824385       0.99989102    5.4206386e-06
       4.5133926       0.99988947    5.5626078e-06
       4.5415476       0.99988805    5.6938992e-06
       4.5864037       0.99988577    5.9078185e-06
       4.6005288       0.99988504    5.9762923e-06
       4.6605890       0.99988194    6.2741421e-06
       4.6610620       0.99988192    6.2765276e-06
       4.7214109       0.99987876    6.5868265e-06
       4.7359651       0.99987799    6.6633668e-06
       4.7833430       0.99987548    6.9166594e-06
       4.8125674       0.99987391    7.0764486e-06
       4.8450274       0.99987216    7.2568481e-06
       4.8903959       0.99986970    7.5146135e-06
       4.9083234       0.99986872    7.6181652e-06
       4.9695078       0.99986534    7.9796064e-06
       4.9732952       0.99986513    8.0023497e-06
       5.0379622       0.99986151    8.3988457e-06
       5.0498841       0.99986084    8.4735308e-06
       5.1043331       0.99985775    8.8203423e-06
       5.1315648       0.99985619    8.9977081e-06
       5.1703190       0.99985396    9.2542634e-06
       5.2145492       0.99985139    9.5536821e-06
       5.2380334       0.99985002    9.7152853e-06
       5.2989025       0.99984643    1.0143468e-05
       5.3052739       0.99984605    1.0189022e-05
       5.3765937       0.99984178    1.0709928e-05
       5.3846029       0.99984130    1.0769681e-05
       5.4450703       0.99983763    1.1228150e-05
       5.4716958       0.99983601    1.1434568e-05
       5.5177681       0.99983317    1.1797705e-05
       5.5602058       0.99983054    1.2139647e-05
       5.5899121       0.99982868    1.2382967e-05
       5.6501326       0.99982489    1.2887361e-05
       5.6613813       0.99982417    1.2983113e-05
       5.7373554       0.99981932    1.3643740e-05
       5.7415267       0.99981905    1.3680774e-05
       5.8099461       0.99981462    1.4298047e-05
       5.8343882       0.99981302    1.4523419e-05
       5.8871914       0.99980955    1.5018464e-05
       5.9287432       0.99980679    1.5416737e-05
       5.9636484       0.99980447    1.5756791e-05
       6.0246483       0.99980036    1.6364184e-05
       6.0421174       0.99979918    1.6540978e-05
       6.1196570       0.99979389    1.7342960e-05
       6.1220744       0.99979372    1.7368287e-05
       6.1992125       0.99978839    1.8187354e-05
       6.2203305       0.99978692    1.8416703e-05
       6.2211108       0.99978686    1.8425264e-05
       6.3209219       0.99977983    1.9543813e-05
       6.3217276       0.99977977    1.9553062e-05
       6.4231558       0.99977251    2.0740167e-05
       6.4239878       0.99977245    2.0750149e-05
       6.5270671       0.99976495    2.2010018e-05
       6.5278919       0.99976489    2.2020349e-05
       6.6326211       0.99975715    2.3357346e-05
       6.6334728       0.99975709    2.3368481e-05
       6.7398862       0.99974910    2.4786950e-05
       6.7407656       0.99974903    2.4798966e-05
       6.8488991       0.99974078    2.6304087e-05
       6.8497693       0.99974071    2.6316496e-05
       6.9596988       0.99973219    2.7914120e-05
       6.9605584       0.99973212    2.7926909e-05
       7.0722459       0.99972333    2.9620228e-05
       7.0731335       0.99972326    2.9633994e-05
       7.1866595       0.99971419    3.1427828e-05
       7.1875344       0.99971412    3.1441953e-05
       7.3028997       0.99970475    3.3334649e-05
       7.3038032       0.99970468    3.3349832e-05
       7.4210071       0.99969501    3.5356089e-05
       7.4219400       0.99969493    3.5372448e-05
       7.5410247       0.99968496    3.7499859e-05
       7.5419881       0.99968487    3.7517497e-05
       7.6629985       0.99967458    3.9774331e-05
       7.6639458       0.99967450    3.9792419e-05
       7.7869282       0.99966387    4.2186688e-05
       7.7879065       0.99966378    4.2206206e-05
       7.9129118       0.99965282    4.4746079e-05
       7.9138715       0.99965274    4.4766060e-05
       8.0408482       0.99964144    4.7458541e-05
       8.0418913       0.99964134    4.7481201e-05
       8.1709427       0.99962969    5.0337901e-05
       8.1719659       0.99962960    5.0361081e-05
       8.3030913       0.99961761    5.3386384e-05
       8.3041479       0.99961751    5.3411114e-05
       8.4374022       0.99960514    5.6577509e-05
       8.4384358       0.99960505    5.6602589e-05
       8.5738761       0.99959228    5.9948238e-05
       8.5749435       0.99959218    5.9975178e-05
       8.7125104       0.99957902    6.3511970e-05
       8.7136125       0.99957891    6.3540966e-05
       8.8534251       0.99956533    6.7289766e-05
       8.8545632       0.99956522    6.7321013e-05
       8.9966222       0.99955121    7.1291517e-05
       8.9977974       0.99955110    7.1325138e-05
       9.1421677       0.99953666    7.5531763e-05
       9.1433138       0.99953655    7.5565946e-05
       9.2899933       0.99952168    8.0023732e-05
       9.2911768       0.99952156    8.0060526e-05
       9.4403053       0.99950623    8.4784534e-05
       9.4414555       0.99950611    8.4821837e-05
       9.5929630       0.99949033    8.9826307e-05
       9.5941507       0.99949020    8.9866468e-05
       9.7481091       0.99947397    9.5168795e-05
       9.7493355       0.99947384    9.5211865e-05
       9.9058228       0.99945715    0.00010079921
       9.9070893       0.99945702    0.00010084533
       10.066026       0.99943984    0.00010673476
       10.067334       0.99943969    0.00010678416
       10.228795       0.99942199    0.00011299347
       10.230146       0.99942185    0.00011304660
       10.394300       0.99940361    0.00011962249
       10.395607       0.99940346    0.00011967608
       10.562368       0.99938470    0.00012663743
       10.563718       0.99938455    0.00012669505
       10.733266       0.99936524    0.00013406647
       10.734567       0.99936509    0.00013412437
       10.906810       0.99934524    0.00014192714
       10.908249       0.99934508    0.00014199386
       11.083283       0.99932468    0.00015025405
       11.084670       0.99932451    0.00015032099
       11.262490       0.99930356    0.00015906527
       11.263923       0.99930339    0.00015913732
       11.444630       0.99928188    0.00016839466
       11.446109       0.99928170    0.00016847217
       11.629811       0.99925961    0.00017827551
       11.631229       0.99925944    0.00017835292
       11.817816       0.99923684    0.00018872894
       11.819393       0.99923665    0.00018881822
       12.008974       0.99921351    0.00019972425
       12.010603       0.99921331    0.00019981965
       12.203294       0.99918953    0.00021128888
       12.204856       0.99918934    0.00021138415
       12.400632       0.99916492    0.00022358228
       12.402208       0.99916472    0.00022368265
       12.601204       0.99913973    0.00023660230
       12.602805       0.99913953    0.00023670861
       12.805010       0.99911398    0.00025038881
       12.806650       0.99911378    0.00025050224
       13.012129       0.99908773    0.00026497940
       13.013782       0.99908752    0.00026509825
       13.222589       0.99906100    0.00028035104
       13.224267       0.99906079    0.00028047606
       13.436444       0.99903384    0.00029653050
       13.438163       0.99903362    0.00029666232
       13.653781       0.99900603    0.00031328936
       13.655510       0.99900581    0.00031342560
       13.874615       0.99897754    0.00033099402
       13.876385       0.99897731    0.00033113904
       14.099021       0.99894842    0.00034970024
       14.100833       0.99894818    0.00034985458
       14.327063       0.99891871    0.00036946181
       14.328900       0.99891847    0.00036962441
       14.558789       0.99888839    0.00039042557
       14.560653       0.99888814    0.00039059768
       14.794268       0.99885760    0.00041268045
       14.796157       0.99885735    0.00041286275
       15.033551       0.99882646    0.00043630271
       15.035483       0.99882621    0.00043649761
       15.276710       0.99879502    0.00046128003
       15.278668       0.99879477    0.00046148539
       15.523801       0.99876335    0.00048768734
       15.525784       0.99876310    0.00048790388
       15.774880       0.99873163    0.00051560723
       15.776908       0.99873138    0.00051583690
       16.030028       0.99870000    0.00054490424
       16.032080       0.99869975    0.00054514409
       16.289305       0.99866830    0.00057557954
       16.291381       0.99866805    0.00057583014
       16.552774       0.99863650    0.00060789502
       16.554896       0.99863624    0.00060816075
       16.820501       0.99860489    0.00064201213
       16.822646       0.99860464    0.00064229127
       17.092553       0.99857361    0.00067803340
       17.094744       0.99857336    0.00067832983
       17.369022       0.99854364    0.00071609844
       17.371237       0.99854341    0.00071640353
       17.649933       0.99851529    0.00075509830
       17.652220       0.99851506    0.00075541224
       17.935408       0.99848698    0.00079436945
       17.937718       0.99848674    0.00079469417
       18.225500       0.99845704    0.00083596439
       18.227858       0.99845680    0.00083631633
       18.520288       0.99842716    0.00088137067
       18.522667       0.99842693    0.00088175498
       18.819853       0.99839991    0.00093152275
       18.822253       0.99839972    0.00093193289
       19.124252       0.99837719    0.00098450887
       19.126701       0.99837702    0.00098494089
       19.433573       0.99835861     0.0010397333
       19.436071       0.99835848     0.0010401833
       19.747872       0.99834420     0.0010968053
       19.750420       0.99834410     0.0010972734
       20.067274       0.99833416     0.0011561109
       20.069873       0.99833410     0.0011566025
       20.391845       0.99833029     0.0012185380
       20.394494       0.99833028     0.0012190576
       20.721682       0.99833404     0.0012843418
       20.724350       0.99833419     0.0012848842
       21.056822       0.99835976     0.0013536837
       21.059540       0.99836012     0.0013541300
       21.397402       0.99841373     0.0014106442
       21.400172       0.99841406     0.0014109040
       21.743498       0.99846849     0.0014438430
       21.746320       0.99846865     0.0014441174
       22.095184       0.99851302     0.0014791264
       22.098019       0.99851329     0.0014795184
       22.452536       0.99860607     0.0015295408
       22.455464       0.99860690     0.0015301959
       22.815716       0.99929742     0.0016122921
       22.818655       0.99930334     0.0016129742
       22.824788       0.99948408     0.0016144040
       22.833195       0.99948530    0.00098800613
       23.184723       0.99861076     0.0010370472
       23.187715       0.99860323     0.0010374742
       23.559729       0.99845893     0.0010912000
       23.562773       0.99845779     0.0010916503
       23.940776       0.99837478     0.0011482167
       23.943873       0.99837416     0.0011486910
       24.328001       0.99832074     0.0012081962
       24.331152       0.99832038     0.0012086955
       24.721499       0.99828890     0.0012712907
       24.724703       0.99828875     0.0012718164
       25.121368       0.99827857     0.0013376788
       25.124575       0.99827863     0.0013382241
       25.527656       0.99829359     0.0014075496
       25.530967       0.99829395     0.0014081325
       25.940570       0.99834356     0.0014810792
       25.943881       0.99834436     0.0014816824
       26.360110       0.99845036     0.0015584368
       26.363529       0.99845212     0.0015590821
       26.786497       0.99867631     0.0016398446
       26.789912       0.99868221     0.0016405120
       27.219733       0.99943891     0.0017255032
       27.223259       0.99948856     0.0017262133
       27.315323        1.0007895     0.0017447653
       27.327364        1.0007920    0.00024758556
       27.659991       0.99886747    0.00025693862
       27.663570       0.99886398    0.00025704172
       28.107332       0.99842541    0.00027003868
       28.111028       0.99842323    0.00027014886
       28.561942       0.99815424    0.00028381460
       28.565693       0.99815252    0.00028393029
       29.023957       0.99794052    0.00029830091
       29.027695       0.99793905    0.00029842020
       29.493375       0.99775439    0.00031352990
       29.497164       0.99775304    0.00031365505
       29.970400       0.99758344    0.00032954304
       29.974313       0.99758214    0.00032967669
       30.455179       0.99742130    0.00034638293
       30.459069       0.99742007    0.00034652053
       30.947707       0.99726440    0.00036408621
       30.951724       0.99726317    0.00036423201
       31.448289       0.99711031    0.00038255403
       31.452358       0.99710909    0.00038270365
       31.956927       0.99695677    0.00040155922
       31.961129       0.99695553    0.00040173480
       32.473867       0.99680210    0.00042345812
       32.478035       0.99680088    0.00042364314
       32.999108       0.99664801    0.00044711978
       33.003325       0.99664680    0.00044731397
       33.532820       0.99649301    0.00047210313
       33.537174       0.99649177    0.00047231154
       34.075181       0.99633710    0.00049848378
       34.079583       0.99633585    0.00049870274
       34.626282       0.99617944    0.00052633897
       34.630828       0.99617815    0.00052656643
       35.186312       0.99601950    0.00055482587
       35.190907       0.99601820    0.00055504541
       35.755474       0.99585692    0.00058247985
       35.760114       0.99585559    0.00058270909
       36.333765       0.99568998    0.00061152060
       36.338557       0.99568859    0.00061176528
       36.921502       0.99551884    0.00064202755
       36.926230       0.99551747    0.00064227709
       37.518573       0.99534348    0.00067406468
       37.523455       0.99534205    0.00067433105
       38.125421       0.99516366    0.00070772168
       38.130463       0.99516216    0.00070800609
       38.742051       0.99497918    0.00074307973
       38.747137       0.99497766    0.00074337617
       39.368703       0.99478985    0.00078022297
       39.373829       0.99478830    0.00078053191
       40.005501       0.99459550    0.00081924009
       40.010665       0.99459392    0.00081956037
       40.652573       0.99439595    0.00086003886
       40.657906       0.99439430    0.00086038015
       41.310045       0.99419077    0.00090283643
       41.315413       0.99418909    0.00090319163
       41.978185       0.99397984    0.00094778546
       41.983729       0.99397808    0.00094816458
       42.657138       0.99376294    0.00099500257
       42.662715       0.99376115    0.00099539680
       43.347196       0.99353992     0.0010446042
       43.352804       0.99353810     0.0010450138
       44.048207       0.99331071     0.0010966819
       44.053998       0.99330881     0.0010971188
       44.760627       0.99307501     0.0011512784
       44.766606       0.99307302     0.0011517419
       45.484619       0.99283252     0.0012082375
       45.490627       0.99283050     0.0012087177
       46.220354       0.99258306     0.0012679440
       46.226385       0.99258101     0.0012684413
       46.967823       0.99232644     0.0013306203
       46.974051       0.99232429     0.0013311509
       47.727553       0.99206246     0.0013964386
       47.733800       0.99206029     0.0013969780
       48.499550       0.99179178     0.0014642392
       48.505812       0.99178957     0.0014647831
       49.283999       0.99151183     0.0015335382
       49.290465       0.99150951     0.0015341174
       50.081089       0.99122222     0.0016061865
       50.087563       0.99121984     0.0016067849
       50.891223       0.99092257     0.0016823566
       50.897699       0.99092016     0.0016829743
       51.714189       0.99061101     0.0017621870
       51.721092       0.99060837     0.0017628720
       52.550618       0.99028778     0.0018497726
       52.557524       0.99028509     0.0018505480
       53.400746       0.98995725     0.0019479860
       53.407647       0.98995456     0.0019487968
       54.264340       0.98961855     0.0020515112
       54.271466       0.98961576     0.0020523798
       55.142098       0.98927322     0.0021606755
       55.149211       0.98927043     0.0021615748
       56.034027       0.98892179     0.0022757621
       56.041372       0.98891890     0.0022767249
       56.940113       0.98856245     0.0023969835
       56.947698       0.98855944     0.0023979607
       57.861130       0.98819376     0.0025181533
       57.868691       0.98819072     0.0025191623
       58.797091       0.98781411     0.0026456746
       58.804899       0.98781093     0.0026467539
       59.747990       0.98742416     0.0027799002
       59.755765       0.98742097     0.0027810135
       60.714391       0.98702484     0.0029212036
       60.722419       0.98702153     0.0029223941
       61.696291       0.98661790     0.0030699585
       61.704582       0.98661449     0.0030711944
       62.694301       0.98620519     0.0032219760
       62.702545       0.98620173     0.0032231687
       63.708430       0.98577740     0.0033719865
       63.716615       0.98577391     0.0033732108
       64.738663       0.98533720     0.0035295386
       64.747453       0.98533340     0.0035308980
       65.786004       0.98488438     0.0036951864
       65.794382       0.98488071     0.0036965267
       66.849763       0.98441897     0.0038691762
       66.858775       0.98441499     0.0038706668
       67.930992       0.98394536     0.0040521411
       67.939926       0.98394142     0.0040536884
       69.030088       0.98346708     0.0042317382
       69.038928       0.98346322     0.0042332018
       70.146279       0.98296694     0.0044129517
       70.155805       0.98296266     0.0044145152
       71.281125       0.98244966     0.0046022015
       71.290142       0.98244553     0.0046037218
       72.433823       0.98191681     0.0047996910
       72.443557       0.98191230     0.0048013772
       73.605620       0.98136906     0.0050059655
       73.615234       0.98136458     0.0050076770
       74.796094       0.98080995     0.0052213009
       74.805571       0.98080549     0.0052230028
       76.005670       0.98023630     0.0054420344
       76.015922       0.98023140     0.0054437863
       77.234799       0.97964473     0.0056555299
       77.245385       0.97963959     0.0056573852
       78.484456       0.97903306     0.0058781214
       78.494394       0.97902811     0.0058799076
       79.753665       0.97839665     0.0061100023
       79.763927       0.97839144     0.0061118940
       81.043403       0.97773800     0.0063516521
       81.054529       0.97773227     0.0063537555
       82.354201       0.97705828     0.0066036448
       82.365143       0.97705256     0.0066057674
       83.686628       0.97635679     0.0068664288
       83.697362       0.97635109     0.0068685646
       85.040125       0.97563386     0.0071403060
       85.051209       0.97562790     0.0071425693
       86.415229       0.97488917     0.0074258659
       86.426674       0.97488294     0.0074282645
       87.813140       0.97412270     0.0077237340
       87.824958       0.97411620     0.0077262752
       89.233252       0.97333671     0.0080343524
       89.245456       0.97332999     0.0080369455
       90.676835       0.97253599     0.0083463682
       90.688774       0.97252920     0.0083488660
       92.143234       0.97169508     0.0086584544
       92.155562       0.97168789     0.0086610998
       93.633792       0.97082004     0.0089896440
       93.645815       0.97081288     0.0089923386
       95.147805       0.96991598     0.0093352361
       95.160950       0.96990802     0.0093382633
       96.687449       0.96897887     0.0096963095
       96.700269       0.96897095     0.0096993413
       98.251262       0.96800809      0.010073134
       98.263721       0.96800024      0.010076162
       99.839954       0.96700243      0.010466431
       99.853623       0.96699363      0.010469854
       101.45512       0.96595688      0.010878589
       101.46841       0.96594815      0.010882209
       103.09597       0.96487314      0.011334149
       103.10969       0.96486409      0.011337993
       104.76332       0.96376799      0.011810290
       104.77749       0.96375854      0.011814374
       106.45806       0.96263257      0.012308080
       106.47177       0.96262331      0.012312146
       108.17926       0.96146546      0.012828101
       108.19436       0.96145513      0.012832708
       109.92973       0.96026397      0.013372269
       109.94436       0.96025384      0.013376858
       111.70759       0.95902848      0.013940903
       111.72269       0.95901789      0.013945778
       113.51374       0.95775808      0.014535364
       113.52933       0.95774701      0.014540544
       115.35028       0.95645061      0.015157468
       115.36531       0.95643982      0.015162607
       117.21619       0.95510929      0.015807902
       117.23170       0.95509803      0.015813359
       119.11140       0.95373376      0.016487399
       119.12742       0.95372201      0.016493162
       121.03818       0.95232221      0.017193775
       121.05473       0.95230994      0.017199898
       122.99659       0.95087688      0.017932997
       123.01245       0.95086504      0.017939042
       124.98538       0.94941085      0.018705836
       125.00202       0.94939845      0.018712361
       127.00689       0.94792936      0.019452634
       127.02380       0.94791682      0.019458935
       129.06113       0.94636101      0.020205835
       129.07833       0.94634773      0.020212195
       131.14864       0.94472568      0.020989266
       131.16612       0.94471188      0.020995885
       133.26983       0.94303452      0.021804424
       133.28759       0.94302020      0.021811312
       135.42539       0.94128371      0.022652642
       135.44344       0.94126888      0.022659793
       137.61578       0.93947087      0.023533498
       137.63411       0.93945555      0.023540452
       139.84159       0.93759830      0.024390579
       139.86020       0.93758213      0.024397808
       142.10343       0.93562180      0.025282068
       142.12233       0.93560487      0.025289578
       144.40180       0.93354953      0.026209415
       144.42114       0.93353167      0.026217287
       146.73734       0.93137933      0.027174099
       146.75697       0.93136060      0.027182275
       149.11075       0.92910025      0.028177799
       149.13066       0.92908043      0.028186291
       151.52238       0.92668411      0.029222080
       151.54275       0.92666312      0.029230978
       153.97314       0.92414361      0.030308800
       153.99379       0.92412166      0.030318841
       156.46359       0.92148001      0.031537884
       156.48452       0.92145720      0.031548450
       158.99432       0.91870501      0.032835099
       159.01553       0.91868132      0.032846076
       161.56594       0.91581505      0.034186744
       161.58742       0.91579022      0.034198143
       164.17906       0.91277432      0.035594860
       164.20102       0.91274766      0.035606811
       166.83453       0.90952868      0.037062146
       166.85698       0.90950007      0.037075284
       169.53303       0.90606689      0.038665877
       169.55575       0.90603731      0.038681130
       172.27500       0.90247364      0.040535270
       172.29822       0.90244249      0.040551363
       175.06139       0.89870953      0.042496117
       175.08487       0.89867744      0.042512920
       177.89292       0.89481177      0.044554986
       177.91666       0.89477660      0.044572533
       180.77011       0.89052424      0.046723618
       180.79436       0.89048577      0.046742753
       183.69398       0.88585807      0.049066722
       183.71875       0.88581710      0.049090520
       186.66508       0.88091082      0.051966289
       186.69009       0.88086853      0.051991515
       189.68423       0.87577519      0.055057865
       189.70977       0.87573092      0.055085791
       192.75229       0.87042296      0.058464415
       192.77807       0.87037730      0.058500046
       195.86986       0.86486525      0.062841835
       195.89617       0.86481837      0.062881120
       199.03783       0.85918533      0.067646087
       199.06468       0.85914015      0.067683328
       202.25717       0.85373914      0.072182014
       202.28423       0.85368467      0.072220982
       205.52851       0.84711160      0.076964308
       205.55611       0.84705029      0.077006404
       208.85286       0.83967333      0.082113212
       208.88101       0.83960585      0.082163480
       212.23093       0.83151785      0.088237648
       212.25927       0.83144186      0.088325125
       215.66341       0.82223984      0.099000883
       215.69230       0.82218304      0.099104998
       219.15179       0.81535285       0.11176636
       219.18124       0.81530642       0.11186307
       222.69606       0.80976098       0.12358758
       222.72606       0.80972148       0.12369813
       226.29819       0.80503417       0.13705503
       226.32876       0.80499915       0.13718148
       229.95818       0.80087495       0.15242591
       229.98932       0.80085642       0.15255717
       233.67771       0.79873196       0.16833762
       233.70942       0.79872862       0.16848605
       237.45722       0.79844017       0.18628343
       237.48951       0.79845495       0.18643063
       241.29806       0.80035196       0.20404560
       241.33046       0.80039543       0.20417700
       245.20067       0.80582263       0.22010265
       245.23365       0.80589450       0.22024572
       249.16649       0.81477216       0.23754687
       249.20055       0.81486069       0.23766865
       253.19702       0.82570356       0.25215414
       253.23115       0.82579247       0.25223242
       257.29226       0.83678399       0.26126402
       257.32697       0.83686224       0.26134193
       261.45376       0.84617178       0.27051900
       261.48905       0.84625858       0.27059820
       265.68205       0.85671088       0.28010088
       265.71850       0.85680128       0.28015616
       269.97938       0.86756334       0.28666284
       270.01583       0.86764371       0.28671879
       274.34635       0.87739015       0.29340910
       274.38339       0.87747626       0.29346660
       278.78356       0.88792801       0.30034425
       278.82118       0.88802753       0.30039854
       283.29285       0.90011138       0.30689184
       283.33105       0.90021450       0.30691873
       287.87487       0.91274463       0.31010518
       287.91364       0.91282794       0.31013335
       292.53090       0.92297765       0.31347849
       292.57025       0.92311304       0.31350805
       297.26232       0.93960865       0.31701905
       297.30224       0.93976991       0.31701579
       302.07054       0.95943391       0.31655221
       302.11103       0.95957459       0.31645599
       306.95629       0.97677942       0.30468693
       306.99733       0.97682620       0.30460319
       311.92105       0.98263555       0.29432409
       311.96343       0.98266684       0.29425085
       316.96556       0.98654033       0.28540888
       317.00852       0.98657107       0.28534755
       322.09223       0.99041286       0.27791739
       322.13575       0.99040764       0.27782873
       327.30190       0.98995696       0.26706998
       327.34683       0.98992810       0.26699762
       332.59630       0.98674667       0.25835945
       332.64091       0.98670654       0.25832975
       337.97541       0.98220575       0.25466574
       338.02148       0.98216793       0.25464609
       343.44192       0.97861348       0.25187732
       343.48854       0.97857348       0.25186305
       348.99679       0.97328608       0.24871286
       349.04395       0.97324323       0.24873901
       354.64197       0.96764820       0.25182697
       354.68965       0.96762191       0.25186202
       360.37743       0.96421392       0.25603496
       360.42667       0.96424984       0.25603304
       366.20624       0.96842639       0.25572680
       366.25600       0.96846471       0.25571282
       372.12951       0.97299564       0.25396114
       372.17978       0.97298293       0.25386899
       376.96640       0.97172373       0.24493664
       378.20024       0.97004186       0.24308327
       382.00012       0.96478164       0.23725982
       384.31739       0.95885950       0.23500143
       387.10118       0.95165016       0.23222447
       390.53233       0.94308060       0.23603989
       391.26439       0.94123418       0.23685662
       396.84992       0.93255848       0.24314371
       397.59313       0.93138948       0.24398512
       403.26770       0.92472720       0.25046931
       404.02331       0.92383126       0.25133772
       409.79078       0.91827875       0.25802773
       410.55883       0.91753440       0.25892375
       416.41925       0.91273425       0.26582509
       417.19833       0.91209435       0.26674789
       423.15444       0.90786561       0.27386875
       1033.17      0.630000      0.770000
       1078.09      0.600000      0.810000
       1127.09      0.580000      0.910000
       1180.76      0.600000       1.01000
       1239.80      0.570000       1.07000
       1305.05      0.520000       1.21000
       1377.56      0.540000       1.42000
       1458.59      0.680000       1.64000
       1549.75      0.910000       1.81000
       1589.89      0.950000       1.77000
       1699.99       1.04000       1.94000
       1780.04       1.31000       2.03000
       1939.92       1.55000       1.77000
       2099.93       1.46000       1.65000
       2170.14       1.82000      0.971000
       2279.88       1.81000       1.17000
       2319.99       1.45000       2.15000
       2509.72       2.01000       1.71000
       2659.94       1.97000       3.36000
       2699.91       2.53000       2.09000
       2720.05       2.59000       3.47000
       2730.24       2.92000       3.49000
       2850.11       3.03000       2.21000
       2879.91       3.56000       3.55000
       2940.00       4.23000       3.48000
       3059.72       3.84000       1.95000
       3179.79       5.38000       2.18000
       3349.91       4.22000      0.788000
       3440.07       4.36000       0.00000
       3599.88       3.87000      0.251000
       3880.44       3.49000       0.00000
       3999.35       3.40000       0.00000
       4120.31       3.24000     0.0220000
       4199.86       3.29000       0.00000
       4399.57       3.20000       0.00000
       4600.37       3.13000       0.00000
       4799.85       3.08000       0.00000
       4999.19       3.03000       0.00000
       5200.50       3.00000       0.00000
       5390.44       2.95000       0.00000
       5399.83       2.97000       0.00000
       5599.82       2.94000       0.00000
       5798.88       2.92000       0.00000
       6000.97       2.90000       0.00000
       6199.00       2.88000       0.00000
       6400.62       2.87000       0.00000
       6598.19       2.85000       0.00000
       6800.88       2.84000       0.00000
       7000.56       2.83000       0.00000
       7199.77       2.82000       0.00000
       7401.79       2.81000       0.00000
       7601.47       2.81000       0.00000
       7797.48       2.80000       0.00000
       7998.71       2.79000       0.00000
       8199.74       2.79000       0.00000
       8399.73       2.78000       0.00000
       8597.78       2.78000       0.00000
       8799.15       2.77000       0.00000
       8997.10       2.77000       0.00000
       9197.33       2.76000       0.00000
       9399.54       2.76000       0.00000
       9603.41       2.76000       0.00000
       9800.79       2.75000       0.00000
       9998.39       2.75000       0.00000
       10195.7       2.75000       0.00000
       10401.0       2.74000       0.00000
       10596.6       2.74000       0.00000
       10799.7       2.74000       0.00000
       11000.9       2.74000       0.00000
       11199.6       2.74000       0.00000
       11395.2       2.73000       0.00000
       11597.8       2.73000       0.00000
       11796.4       2.73000       0.00000
       12001.9       2.73000       0.00000
       12202.8       2.73000       0.00000
       12399.2       2.72000       0.00000
       12599.6       2.72000       0.00000
       12799.9       2.72000       0.00000
       12999.9       2.72000       0.00000
       13199.2       2.72000       0.00000
       13400.3       2.72000       0.00000
       13600.3       2.72000       0.00000
       13800.1       2.72000       0.00000
       13999.5       2.72000       0.00000
       14200.0       2.71000       0.00000
       14399.5       2.71000       0.00000
       14599.6       2.71000       0.00000
       14800.0       2.71000       0.00000
       15000.6       2.71000       0.00000
       24200.7       2.59000       0.00000
       33800.4       2.58000       0.00000
       37902.8       2.57000       0.00000
       42796.0       2.51000       0.00000
       48907.3       2.49000       0.00000
       57292.1       2.43000       0.00000
       71706.2       2.27000       0.00000
       80402.1       2.06000       0.00000
       111996.       1.30000     0.0750000
       113952.       1.21000     0.0910000
       115978.       1.11000      0.111000
       117964.       1.01000      0.136000
       120019.      0.882000      0.171000
       122028.      0.743000      0.224000
       123992.      0.587000      0.310000
       125996.      0.441000      0.450000
       127999.      0.345000      0.625000
       129999.      0.296000      0.791000
       131992.      0.269000      0.940000
       136003.      0.245000       1.20000
       138001.      0.241000       1.31000
       139995.      0.239000       1.42000
       142000.      0.239000       1.52000
       143995.      0.240000       1.62000
       145996.      0.243000       1.72000
       148000.      0.247000       1.81000
       150006.      0.253000       1.90000
       151992.      0.259000       1.98000
       153993.      0.268000       2.07000
       155989.      0.278000       2.15000
       157997.      0.290000       2.24000
       159995.      0.306000       2.32000
       162002.      0.326000       2.39000
       163995.      0.351000       2.46000
       165993.      0.377000       2.52000
       167995.      0.398000       2.57000
       169999.      0.406000       2.61000
       172003.      0.401000       2.66000
       174007.      0.389000       2.71000
       176008.      0.378000       2.77000
       178004.      0.370000       2.84000
       179994.      0.366000       2.91000
       182002.      0.364000       2.98000
       184001.      0.365000       3.05000
       185989.      0.368000       3.12000
       187991.      0.372000       3.19000
       190008.      0.377000       3.25000
       192009.      0.382000       3.32000
       193992.      0.389000       3.39000
       195985.      0.395000       3.45000
       197988.      0.403000       3.52000
       201988.      0.418000       3.65000
       203982.      0.427000       3.72000
       205981.      0.435000       3.78000
       207985.      0.444000       3.84000
       209993.      0.453000       3.91000
       212004.      0.463000       3.97000
       213980.      0.472000       4.04000
       215993.      0.482000       4.10000
       218006.      0.492000       4.16000
       219979.      0.502000       4.23000
       221987.      0.513000       4.29000
       223993.      0.524000       4.35000
       225993.      0.535000       4.42000
       227988.      0.546000       4.48000
       229976.      0.557000       4.54000
       231998.      0.569000       4.60000
       234013.      0.581000       4.67000
       236018.      0.593000       4.73000
       238011.      0.605000       4.79000
       239992.      0.617000       4.85000
       242007.      0.630000       4.92000
       244007.      0.643000       4.98000
       245992.      0.656000       5.04000
       248010.      0.670000       5.11000
       250010.      0.683000       5.17000
       251992.      0.697000       5.23000
       254005.      0.711000       5.29000
       255998.      0.726000       5.36000
       258023.      0.740000       5.42000
       259971.      0.755000       5.48000
       262003.      0.771000       5.55000
       264012.      0.786000       5.61000
       265994.      0.802000       5.67000
       268007.      0.818000       5.74000
       269991.      0.834000       5.80000
       272005.      0.851000       5.87000
       273989.      0.867000       5.93000
       276002.      0.885000       5.99000
       277982.      0.902000       6.06000
       279991.      0.920000       6.12000
       281965.      0.938000       6.19000
       283967.      0.956000       6.25000
       285998.      0.975000       6.32000
       287991.      0.994000       6.38000
       290012.       1.01000       6.45000
       291992.       1.03000       6.51000
       294000.       1.05000       6.58000
       295966.       1.07000       6.64000
       298029.       1.09000       6.71000
       299976.       1.12000       6.78000
       302022.       1.14000       6.84000
       304022.       1.16000       6.91000
       305972.       1.18000       6.98000
       308025.       1.20000       7.04000
       310028.       1.23000       7.11000
       311978.       1.25000       7.18000
       314032.       1.28000       7.25000
       316034.       1.30000       7.31000
       317979.       1.33000       7.38000
       320031.       1.35000       7.45000
       322026.       1.38000       7.52000
       323961.       1.40000       7.59000
       326006.       1.43000       7.66000
       327989.       1.46000       7.73000
       329997.       1.48000       7.79000
       332030.       1.51000       7.86000
       333998.       1.54000       7.93000
       335989.       1.57000       8.00000
       338004.       1.60000       8.08000
       339951.       1.63000       8.15000
       342014.       1.66000       8.22000
       344007.       1.69000       8.29000
       346023.       1.73000       8.36000
       347965.       1.76000       8.43000
       350028.       1.79000       8.50000
       352016.       1.83000       8.58000
       354026.       1.86000       8.65000
       355958.       1.90000       8.72000
       358013.       1.93000       8.79000
       359988.       1.97000       8.87000
       361985.       2.01000       8.94000
       364005.       2.05000       9.01000
   1.03317e+07       12.8500       0.00000
