;  Optical constants for W
;  
;  Concatenation of:
;
;  W_llnl_cxro + W_tarrio + W_palik
;
;    Lambda (A)            n            k
;-----------------------------------------
      0.12398425       0.99999968    7.9221780e-09
      0.12423272       0.99999968    7.9806764e-09
      0.12460729       0.99999968    8.0692094e-09
      0.12523662       0.99999967    8.2188144e-09
      0.12587234       0.99999967    8.3728952e-09
      0.12651454       0.99999967    8.5297007e-09
      0.12742472       0.99999966    8.7564304e-09
      0.12795072       0.99999966    8.8885248e-09
      0.12848109       0.99999966    9.0225129e-09
      0.12888176       0.99999965    9.1261791e-09
      0.12941989       0.99999965    9.2661496e-09
      0.12996253       0.99999965    9.4081517e-09
      0.13050974       0.99999965    9.5522218e-09
      0.13078507       0.99999964    9.6257733e-09
      0.13120026       0.99999964    9.7370849e-09
      0.13189814       0.99999964    9.9253512e-09
      0.13260348       0.99999963    1.0119497e-08
      0.13288773       0.99999963    1.0198163e-08
      0.13331640       0.99999963    1.0317256e-08
      0.13374784       0.99999963    1.0439612e-08
      0.13432746       0.99999962    1.0604911e-08
      0.13491213       0.99999962    1.0772647e-08
      0.13550191       0.99999962    1.0942970e-08
      0.13594764       0.99999962    1.1074912e-08
      0.13654653       0.99999961    1.1253199e-08
      0.13715072       0.99999961    1.1434162e-08
      0.13776028       0.99999961    1.1617959e-08
      0.13806709       0.99999960    1.1712135e-08
      0.13852989       0.99999960    1.1854818e-08
      0.13930815       0.99999960    1.2096226e-08
      0.14009520       0.99999959    1.2345584e-08
      0.14041251       0.99999959    1.2446738e-08
      0.14089119       0.99999959    1.2599901e-08
      0.14137315       0.99999959    1.2756974e-08
      0.14202090       0.99999958    1.2969307e-08
      0.14267463       0.99999958    1.3185018e-08
      0.14333439       0.99999957    1.3404174e-08
      0.14383324       0.99999957    1.3574194e-08
      0.14450379       0.99999957    1.3804145e-08
      0.14518062       0.99999956    1.4037758e-08
      0.14586382       0.99999956    1.4275228e-08
      0.14620784       0.99999956    1.4398419e-08
      0.14672692       0.99999955    1.4585156e-08
      0.14707503       0.99999955    1.4710883e-08
      0.14760030       0.99999955    1.4901474e-08
      0.14848413       0.99999954    1.5228920e-08
      0.14884064       0.99999954    1.5361826e-08
      0.14937861       0.99999954    1.5563261e-08
      0.14992050       0.99999953    1.5772650e-08
      0.15064915       0.99999953    1.6055930e-08
      0.15138492       0.99999953    1.6344006e-08
      0.15212791       0.99999952    1.6636978e-08
      0.15268996       0.99999952    1.6864968e-08
      0.15344585       0.99999951    1.7173565e-08
      0.15420927       0.99999951    1.7487485e-08
      0.15498031       0.99999950    1.7806840e-08
      0.15527145       0.99999950    1.7929993e-08
      0.15556368       0.99999950    1.8053879e-08
      0.15634836       0.99999950    1.8388348e-08
      0.15694209       0.99999949    1.8645812e-08
      0.15774078       0.99999949    1.8994346e-08
      0.15804238       0.99999949    1.9127323e-08
      0.15834515       0.99999948    1.9261181e-08
      0.15875064       0.99999948    1.9441040e-08
      0.15915822       0.99999948    1.9622494e-08
      0.15956789       0.99999948    1.9805561e-08
      0.15997968       0.99999947    1.9990260e-08
      0.16039360       0.99999947    2.0176607e-08
      0.16078881       0.99999947    2.0355151e-08
      0.16122789       0.99999947    2.0553508e-08
      0.16185933       0.99999946    2.0840209e-08
      0.16249574       0.99999946    2.1130719e-08
      0.16313717       0.99999945    2.1425175e-08
      0.16356761       0.99999945    2.1623856e-08
      0.16421755       0.99999945    2.1925346e-08
      0.16487267       0.99999944    2.2234368e-08
      0.16513619       0.99999944    2.2359212e-08
      0.16540055       0.99999944    2.2484663e-08
      0.16575434       0.99999944    2.2654204e-08
      0.16619873       0.99999943    2.2867848e-08
      0.16664550       0.99999943    2.3083544e-08
      0.16709468       0.99999943    2.3301157e-08
      0.16743315       0.99999943    2.3473737e-08
      0.16777300       0.99999943    2.3647529e-08
      0.16822829       0.99999942    2.3881098e-08
      0.16868605       0.99999942    2.4116944e-08
      0.16903102       0.99999942    2.4304035e-08
      0.16937739       0.99999942    2.4492540e-08
      0.16984144       0.99999941    2.4745892e-08
      0.17007442       0.99999941    2.4873432e-08
      0.17030804       0.99999941    2.5001662e-08
      0.17054230       0.99999941    2.5126041e-08
      0.17077720       0.99999941    2.5251010e-08
      0.17101276       0.99999941    2.5376491e-08
      0.17124896       0.99999940    2.5502652e-08
      0.17148582       0.99999940    2.5629414e-08
      0.17172334       0.99999940    2.5756698e-08
      0.17196151       0.99999940    2.5884674e-08
      0.17220035       0.99999940    2.6013262e-08
      0.17243985       0.99999940    2.6139254e-08
      0.17268001       0.99999940    2.6265848e-08
      0.17284853       0.99999940    2.6354840e-08
      0.17304152       0.99999939    2.6456959e-08
      0.17321074       0.99999939    2.6546591e-08
      0.17340455       0.99999939    2.6649359e-08
      0.17364741       0.99999939    2.6778394e-08
      0.17389095       0.99999939    2.6908049e-08
      0.17406184       0.99999939    2.6999196e-08
      0.17425755       0.99999939    2.7103788e-08
      0.17442916       0.99999939    2.7195594e-08
      0.17462570       0.99999939    2.7300856e-08
      0.17474877       0.99999939    2.7368858e-08
      0.17487200       0.99999939    2.7437112e-08
      0.17499541       0.99999938    2.7505445e-08
      0.17511900       0.99999938    2.7574030e-08
      0.17529231       0.99999938    2.7670206e-08
      0.17549080       0.99999938    2.7780611e-08
      0.17566485       0.99999938    2.7877491e-08
      0.17586418       0.99999938    2.7988703e-08
      0.17598900       0.99999938    2.8058375e-08
      0.17611399       0.99999938    2.8128306e-08
      0.17623916       0.99999938    2.8198318e-08
      0.17628928       0.99999938    2.8226371e-08
      0.17636451       0.99999938    2.8268590e-08
      0.17646492       0.99999938    2.8324860e-08
      0.17654030       0.99999938    2.8367135e-08
      0.17664090       0.99999938    2.8423598e-08
      0.17674163       0.99999938    2.8480260e-08
      0.17681724       0.99999938    2.8522762e-08
      0.17686769       0.99999938    2.8551132e-08
      0.17691816       0.99999938    2.8579529e-08
      0.17696867       0.99999938    2.8608043e-08
      0.17701920       0.99999938    2.8636496e-08
      0.17706977       0.99999938    2.8664977e-08
      0.17712036       0.99999938    2.8693486e-08
      0.17712795       0.99999938    2.8697907e-08
      0.17713807       0.99999938    2.8703774e-08
      0.17715832       0.99999938    2.8715599e-08
      0.17719630       0.99999938    2.8737729e-08
      0.17724696       0.99999938    2.8767202e-08
      0.17729765       0.99999938    2.8796792e-08
      0.17733569       0.99999938    2.8805307e-08
      0.17737375       0.99999938    2.8819459e-08
      0.17739913       0.99999938    2.8840677e-08
      0.17742451       0.99999938    2.8861905e-08
      0.17744991       0.99999938    2.8890483e-08
      0.17747531       0.99999938    2.8919165e-08
      0.17749309       0.99999938    2.8930692e-08
      0.17751342       0.99999938    2.8943948e-08
      0.17753122       0.99999938    2.8940434e-08
      0.17755155       0.99999938    2.8936493e-08
      0.17757698       0.99999938    2.8920135e-08
      0.17760242       0.99999938    2.8911388e-08
      0.17761514       0.99999939    2.8918130e-08
      0.17762787       0.99999939    2.8924873e-08
      0.17764059       0.99999939    2.8950633e-08
      0.17765332       0.99999939    2.8976400e-08
      0.17766605       0.99999939    2.9012491e-08
      0.17767878       0.99999939    2.9048591e-08
      0.17769151       0.99999939    2.9077344e-08
      0.17770424       0.99999939    2.9087525e-08
      0.17771698       0.99999939    2.9068355e-08
      0.17772972       0.99999939    2.9010126e-08
      0.17774246       0.99999939    2.8910216e-08
      0.17775520       0.99999939    2.8776510e-08
      0.17776029       0.99999939    2.8720771e-08
      0.17776794       0.99999939    2.8637107e-08
      0.17777304       0.99999939    2.8584406e-08
      0.17778069       0.99999939    2.8536830e-08
      0.17778578       0.99999939    2.8527237e-08
      0.17778961       0.99999939    2.8536730e-08
      0.17779165       0.99999939    2.8541769e-08
      0.17779343       0.99999939    2.8546133e-08
      0.17779547       0.99999939    2.8582049e-08
      0.17779726       0.99999939    2.8613758e-08
      0.17780108       0.99999939    2.8681210e-08
      0.17780363       0.99999939    2.8727049e-08
      0.17780618       0.99999939    2.8835522e-08
      0.17780822       0.99999940    2.8922111e-08
      0.17781001       0.99999940    2.8998511e-08
      0.17781179       0.99999940    2.9075724e-08
      0.17781383       0.99999940    2.9162503e-08
      0.17781562       0.99999940    2.9313917e-08
      0.17781766       0.99999940    2.9483419e-08
      0.17781944       0.99999940    2.9635392e-08
      0.17782148       0.99999940    2.9806699e-08
      0.17782327       0.99999940    2.9962289e-08
      0.17782531       0.99999940    3.0227433e-08
      0.17782735       0.99999940    3.0548633e-08
      0.17782913       0.99999940    3.0832186e-08
      0.17783092       0.99999940    3.1121450e-08
      0.17783270       0.99999941    3.1410270e-08
      0.17783449       0.99999941    2.6520657e-08
      0.17783653       0.99999941    1.7090153e-08
      0.17784010       0.99999940    2.4461642e-08
      0.17784265       0.99999939    5.7741206e-09
      0.17784316       0.99999939    5.7157739e-09
      0.17784367       0.99999939    6.0253952e-09
      0.17784495       0.99999940    5.5750275e-08
      0.17784622       0.99999941    1.0494544e-07
      0.17784801       0.99999942    5.5555094e-08
      0.17784980       0.99999944    5.7165781e-09
      0.17785209       0.99999942    5.7168693e-09
      0.17785464       0.99999941    5.7171772e-09
      0.17785643       0.99999941    1.0786108e-08
      0.17785821       0.99999941    1.5798956e-08
      0.17786000       0.99999941    1.0753061e-08
      0.17786102       0.99999941    7.8807540e-09
      0.17786128       0.99999941    7.1485953e-09
      0.17786153       0.99999941    6.4164238e-09
      0.17786179       0.99999941    5.7405789e-09
      0.17786459       0.99999941    5.7183922e-09
      0.17786740       0.99999941    5.7187347e-09
      0.17786995       0.99999940    5.7190517e-09
      0.17787250       0.99999940    5.7193597e-09
      0.17787506       0.99999940    5.7196766e-09
      0.17787761       0.99999940    5.7199936e-09
      0.17788144       0.99999940    5.7204557e-09
      0.17788526       0.99999940    5.7209267e-09
      0.17788782       0.99999940    5.7212438e-09
      0.17789037       0.99999940    5.7215519e-09
      0.17789803       0.99999940    5.7224942e-09
      0.17790313       0.99999940    5.7231195e-09
      0.17790824       0.99999939    5.7237449e-09
      0.17791334       0.99999939    5.7243703e-09
      0.17792100       0.99999939    5.7253130e-09
      0.17792611       0.99999939    5.7259386e-09
      0.17793377       0.99999939    5.7268816e-09
      0.17793888       0.99999939    5.7275074e-09
      0.17794654       0.99999939    5.7284416e-09
      0.17795165       0.99999939    5.7290675e-09
      0.17795931       0.99999939    5.7300109e-09
      0.17797208       0.99999939    5.7315807e-09
      0.17798486       0.99999939    5.7331508e-09
      0.17799763       0.99999939    5.7347123e-09
      0.17801041       0.99999939    5.7362832e-09
      0.17802319       0.99999939    5.7378545e-09
      0.17803597       0.99999938    5.7394172e-09
      0.17804875       0.99999938    5.7409893e-09
      0.17806154       0.99999938    5.7425618e-09
      0.17807433       0.99999938    5.7441347e-09
      0.17808712       0.99999938    5.7456989e-09
      0.17811270       0.99999938    5.7488466e-09
      0.17813829       0.99999938    5.7519869e-09
      0.17816389       0.99999938    5.7551378e-09
      0.17818949       0.99999938    5.7582812e-09
      0.17821511       0.99999938    5.7614352e-09
      0.17824073       0.99999938    5.7645817e-09
      0.17826636       0.99999938    5.7677389e-09
      0.17829199       0.99999938    5.7708885e-09
      0.17831763       0.99999938    5.7740489e-09
      0.17834328       0.99999938    5.7772017e-09
      0.17836894       0.99999937    5.7803561e-09
      0.17842028       0.99999937    5.7866787e-09
      0.17847164       0.99999937    5.7930077e-09
      0.17851019       0.99999937    5.7977563e-09
      0.17854875       0.99999937    5.8025175e-09
      0.17860019       0.99999937    5.8088623e-09
      0.17865166       0.99999937    5.8152134e-09
      0.17870316       0.99999937    5.8215618e-09
      0.17878046       0.99999937    5.8311145e-09
      0.17885783       0.99999937    5.8406725e-09
      0.17890945       0.99999937    5.8470555e-09
      0.17898694       0.99999936    5.8566466e-09
      0.17903863       0.99999936    5.8630365e-09
      0.17909035       0.99999936    5.8694419e-09
      0.17916799       0.99999936    5.8790667e-09
      0.17921979       0.99999936    5.8854882e-09
      0.17929754       0.99999936    5.8951280e-09
      0.17942728       0.99999936    5.9112296e-09
      0.17955720       0.99999936    5.9273809e-09
      0.17968732       0.99999936    5.9435636e-09
      0.17979155       0.99999935    5.9567174e-09
      0.17989589       0.99999935    5.9698976e-09
      0.18000036       0.99999935    5.9831045e-09
      0.18007879       0.99999935    5.9930203e-09
      0.18026207       0.99999935    6.0162340e-09
      0.18036696       0.99999935    6.0295345e-09
      0.18047198       0.99999935    6.0428619e-09
      0.18060342       0.99999935    6.0595568e-09
      0.18073506       0.99999935    6.0762940e-09
      0.18086689       0.99999934    6.0930736e-09
      0.18099891       0.99999934    6.1098957e-09
      0.18126352       0.99999934    6.1436775e-09
      0.18152892       0.99999934    6.1776216e-09
      0.18171515       0.99999934    6.2018100e-09
      0.18192847       0.99999933    6.2295677e-09
      0.18211553       0.99999933    6.2539417e-09
      0.18232978       0.99999933    6.2819031e-09
      0.18259831       0.99999933    6.3170230e-09
      0.18286763       0.99999933    6.3523230e-09
      0.18313774       0.99999932    6.3877945e-09
      0.18340865       0.99999932    6.4234579e-09
      0.18368037       0.99999932    6.4598225e-09
      0.18395289       0.99999932    6.4963652e-09
      0.18422623       0.99999931    6.5331064e-09
      0.18450037       0.99999931    6.5700280e-09
      0.18477534       0.99999931    6.6071506e-09
      0.18505112       0.99999931    6.6444657e-09
      0.18530003       0.99999930    6.6782109e-09
      0.18552185       0.99999930    6.7083349e-09
      0.18616254       0.99999930    6.7971337e-09
      0.18672327       0.99999929    6.8752234e-09
      0.18728739       0.99999929    6.9541342e-09
      0.18813998       0.99999928    7.0740631e-09
      0.18871271       0.99999928    7.1565714e-09
      0.18928893       0.99999927    7.2399469e-09
      0.18986868       0.99999927    7.3242213e-09
      0.19074500       0.99999926    7.4523150e-09
      0.19133372       0.99999925    7.5405383e-09
      0.19222364       0.99999925    7.6746663e-09
      0.19282154       0.99999924    7.7653024e-09
      0.19372539       0.99999923    7.9030942e-09
      0.19433268       0.99999923    7.9981459e-09
      0.19525079       0.99999922    8.1426801e-09
      0.19586769       0.99999922    8.2403503e-09
      0.19680040       0.99999921    8.3888954e-09
      0.19742715       0.99999920    8.4910907e-09
      0.19805791       0.99999920    8.5944116e-09
      0.19901164       0.99999919    8.7515754e-09
      0.20029766       0.99999918    8.9686746e-09
      0.20160041       0.99999917    9.1906884e-09
      0.20292021       0.99999916    9.4214410e-09
      0.20392146       0.99999915    9.5979811e-09
      0.20527194       0.99999914    9.8420671e-09
      0.20664042       0.99999912    1.0091831e-08
      0.20698539       0.99999912    1.0155765e-08
      0.20733152       0.99999912    1.0220071e-08
      0.20823690       0.99999911    1.0389881e-08
      0.21014280       0.99999909    1.0756178e-08
      0.21193889       0.99999908    1.1105865e-08
      0.21376595       0.99999906    1.1472310e-08
      0.21450562       0.99999905    1.1623625e-08
      0.21551234       0.99999905    1.1830803e-08
      0.21828213       0.99999902    1.2416196e-08
      0.21983023       0.99999901    1.2754104e-08
      0.22140045       0.99999899    1.3100434e-08
      0.22339505       0.99999897    1.3555126e-08
      0.22542591       0.99999895    1.4024248e-08
      0.22749404       0.99999893    1.4519267e-08
      0.22960046       0.99999891    1.5030300e-08
      0.23174626       0.99999889    1.5570828e-08
      0.23393255       0.99999887    1.6129330e-08
      0.23843125       0.99999883    1.7332003e-08
      0.24310637       0.99999878    1.8650449e-08
      0.24796850       0.99999873    2.0098260e-08
      0.25047323       0.99999870    2.0874014e-08
      0.25302908       0.99999868    2.1688144e-08
      0.25563763       0.99999865    2.2542912e-08
      0.25830052       0.99999862    2.3440722e-08
      0.26101947       0.99999859    2.4384123e-08
      0.26379628       0.99999856    2.5376225e-08
      0.26663280       0.99999853    2.6419935e-08
      0.26953098       0.99999850    2.7518553e-08
      0.27369592       0.99999845    2.9155683e-08
      0.27861629       0.99999839    3.1178005e-08
      0.28306906       0.99999834    3.3093717e-08
      0.28833547       0.99999828    3.5469359e-08
      0.29172765       0.99999823    3.7061108e-08
      0.29590513       0.99999818    3.9092479e-08
      0.29947886       0.99999814    4.0894102e-08
      0.30317778       0.99999809    4.2822272e-08
      0.30537993       0.99999806    4.4001376e-08
      0.30689171       0.99999804    4.4824383e-08
      0.30841853       0.99999802    4.5667038e-08
      0.30996062       0.99999800    4.6530082e-08
      0.31388418       0.99999795    4.8774284e-08
      0.31790833       0.99999790    5.1157221e-08
      0.32203701       0.99999784    5.3689858e-08
      0.32627434       0.99999779    5.6383432e-08
      0.33062467       0.99999773    5.9243232e-08
      0.33509257       0.99999766    6.2289450e-08
      0.33968288       0.99999760    6.5537243e-08
      0.34411393       0.99999753    6.8788217e-08
      0.34729482       0.99999749    7.1193310e-08
      0.35123017       0.99999743    7.4253800e-08
      0.35525573       0.99999737    7.7482614e-08
      0.35937464       0.99999731    8.0889428e-08
      0.36359018       0.99999724    8.4488309e-08
      0.36681731       0.99999719    8.7321419e-08
      0.37121033       0.99999713    9.1289329e-08
      0.37570985       0.99999706    9.5488920e-08
      0.38031979       0.99999698    9.9926369e-08
      0.38385217       0.99999693    1.0342779e-07
      0.38866536       0.99999685    1.0834173e-07
      0.39360079       0.99999677    1.1355539e-07
      0.39738542       0.99999670    1.1767647e-07
      0.40254627       0.99999662    1.2347062e-07
      0.40784293       0.99999653    1.2963121e-07
      0.41328083       0.99999643    1.3189358e-07
      0.41390721       0.99999642    1.3263745e-07
      0.42060069       0.99999630    1.4078280e-07
      0.42740368       0.99999618    1.4942614e-07
      0.43431774       0.99999605    1.5859737e-07
      0.44134131       0.99999592    1.6832626e-07
      0.44848058       0.99999579    1.7864954e-07
      0.45573397       0.99999565    1.8960061e-07
      0.46310473       0.99999551    2.0121799e-07
      0.47059633       0.99999536    2.1354332e-07
      0.47820700       0.99999521    2.2661583e-07
      0.48594214       0.99999505    2.4048364e-07
      0.49380180       0.99999489    2.5519244e-07
      0.50178785       0.99999473    2.7079294e-07
      0.50990430       0.99999455    2.8733969e-07
      0.51815118       0.99999437    3.0488803e-07
      0.52653277       0.99999419    3.2349914e-07
      0.53504909       0.99999400    3.4323396e-07
      0.54370234       0.99999381    3.6415948e-07
      0.55249725       0.99999360    3.8635086e-07
      0.56143388       0.99999340    4.0987840e-07
      0.57051468       0.99999318    4.3482229e-07
      0.57974222       0.99999296    4.6126547e-07
      0.58911915       0.99999273    4.8929962e-07
      0.59864539       0.99999249    5.1901080e-07
      0.60832953       0.99999225    5.5051010e-07
      0.61816874       0.99999200    5.8389351e-07
      0.62816593       0.99999174    6.1927021e-07
      0.63832742       0.99999148    6.5676587e-07
      0.64864996       0.99999120    6.9649110e-07
      0.65914359       0.99999092    7.3859086e-07
      0.66980498       0.99999063    7.8319114e-07
      0.68063752       0.99999033    8.3043577e-07
      0.69164482       0.99999002    8.8048233e-07
      0.70283465       0.99998970    9.3350289e-07
      0.71419910       0.99998937    9.8963958e-07
      0.72575013       0.99998903    1.0490962e-06
      0.73749227       0.99998869    1.1120696e-06
      0.74941671       0.99998833    1.1787198e-06
      0.76154127       0.99998796    1.2493060e-06
      0.77385686       0.99998759    1.3240083e-06
      0.78637278       0.99998720    1.4030823e-06
      0.79909414       0.99998680    1.4867769e-06
      0.81201576       0.99998640    1.5753222e-06
      0.82515340       0.99998598    1.6690376e-06
      0.83849626       0.99998555    1.7681510e-06
      0.85206101       0.99998512    1.8730178e-06
      0.86584203       0.99998467    1.9839165e-06
      0.87984509       0.99998421    2.1011852e-06
      0.89407635       0.99998375    2.2251868e-06
      0.90853583       0.99998328    2.3562722e-06
      0.92323000       0.99998280    2.4948338e-06
      0.93816588       0.99998232    2.6412752e-06
      0.95333633       0.99998184    2.7959947e-06
      0.96875562       0.99998136    2.9594570e-06
      0.98442388       0.99998089    3.1321194e-06
       1.0003490       0.99998046    3.3144538e-06
       1.0165310       0.99998012    3.5070196e-06
       1.0246717       0.99998090    3.6068650e-06
       1.0246886       0.99998090    3.1448720e-06
       1.0329697       0.99997965    3.2390595e-06
       1.0496732       0.99997908    3.4362592e-06
       1.0666596       0.99997883    3.6455164e-06
       1.0740053       0.99998078    3.7367931e-06
       1.0740239       0.99998078    2.6723237e-06
       1.0839111       0.99997810    2.7652655e-06
       1.1014360       0.99997714    2.9398713e-06
       1.1192541       0.99997634    3.1255576e-06
       1.1373554       0.99997561    3.3229432e-06
       1.1557501       0.99997495    3.5328013e-06
       1.1744492       0.99997439    3.7559569e-06
       1.1934415       0.99997405    3.9931454e-06
       1.2127497       0.99997520    4.2453844e-06
       1.2147101       0.99997934    4.2716601e-06
       1.2147339       0.99997934    1.6595864e-06
       1.2323621       0.99997255    1.7441210e-06
       1.2522928       0.99997104    1.8465049e-06
       1.2725470       0.99996972    1.9550494e-06
       1.2890856       0.99996870    2.0485106e-06
       1.3059222       0.99996769    2.1469020e-06
       1.3230632       0.99996667    2.2505525e-06
       1.3403703       0.99996566    2.3586178e-06
       1.3578387       0.99996463    2.4715779e-06
       1.3756158       0.99996358    2.5902385e-06
       1.3935512       0.99996252    2.7140966e-06
       1.4117997       0.99996143    2.8442148e-06
       1.4302024       0.99996032    2.9798029e-06
       1.4489219       0.99995919    3.1224428e-06
       1.4677903       0.99995803    3.2710822e-06
       1.4869783       0.99995685    3.4273681e-06
       1.5064915       0.99995563    3.5915623e-06
       1.5261478       0.99995439    3.7625290e-06
       1.5461311       0.99995312    3.9422673e-06
       1.5662487       0.99995182    4.1292072e-06
       1.5866938       0.99995048    4.3253530e-06
       1.6074712       0.99994911    4.5315210e-06
       1.6283721       0.99994772    4.7459759e-06
       1.6496042       0.99994628    4.9707049e-06
       1.6711720       0.99994480    5.2070269e-06
       1.6930800       0.99994329    5.4548307e-06
       1.7150954       0.99994174    5.7123948e-06
       1.7376910       0.99994014    5.9853925e-06
       1.7603897       0.99993851    6.2687722e-06
       1.7834328       0.99993684    6.5660436e-06
       1.8065605       0.99993513    6.8744804e-06
       1.8302960       0.99993336    7.2014415e-06
       1.8541087       0.99993157    7.5405450e-06
       1.8782647       0.99992972    7.8956596e-06
       1.9027663       0.99992783    8.2677659e-06
       1.9276158       0.99992588    8.6579633e-06
       1.9528154       0.99992389    9.0664837e-06
       1.9783668       0.99992184    9.4947296e-06
       2.0042717       0.99991973    9.9429972e-06
       2.0305314       0.99991758    1.0412737e-05
       2.0571470       0.99991536    1.0904265e-05
       2.0837689       0.99991312    1.1412336e-05
       2.1110889       0.99991079    1.1950748e-05
       2.1387657       0.99990840    1.2514414e-05
       2.1667992       0.99990595    1.3104116e-05
       2.1948000       0.99990348    1.3712294e-05
       2.2235339       0.99990091    1.4357255e-05
       2.2526208       0.99989828    1.5031138e-05
       2.2820587       0.99989559    1.5735774e-05
       2.3118450       0.99989283    1.6472033e-05
       2.3419768       0.99989001    1.7241248e-05
       2.3729043       0.99988708    1.8056661e-05
       2.4037272       0.99988412    1.8896164e-05
       2.4353614       0.99988105    1.9785527e-05
       2.4668573       0.99987797    2.0699962e-05
       2.4991786       0.99987476    2.1668624e-05
       2.5318409       0.99987149    2.2679796e-05
       2.5648376       0.99986815    2.3734569e-05
       2.5987057       0.99986468    2.4852292e-05
       2.6323620       0.99986120    2.5999058e-05
       2.6669015       0.99985759    2.7214020e-05
       2.7017705       0.99985390    2.8480305e-05
       2.7369592       0.99985015    2.9799731e-05
       2.7724564       0.99984632    3.1173265e-05
       2.8088865       0.99984235    3.2628237e-05
       2.8456335       0.99983831    3.4143465e-05
       2.8826843       0.99983420    3.5720464e-05
       2.9207126       0.99982994    3.7391406e-05
       2.9583453       0.99982569    3.9097208e-05
       2.9969604       0.99982129    4.0903653e-05
       3.0365969       0.99981673    4.2818040e-05
       3.0757690       0.99981219    4.4769864e-05
       3.1159651       0.99980749    4.6836803e-05
       3.1572256       0.99980264    4.9026861e-05
       3.1979430       0.99979781    5.1255289e-05
       3.2397243       0.99979282    5.3614030e-05
       3.2826119       0.99978766    5.6113611e-05
       3.3248659       0.99978254    5.8654948e-05
       3.3691372       0.99977716    6.1399762e-05
       3.4127236       0.99977182    6.4189382e-05
       3.4574526       0.99976632    6.7140790e-05
       3.5023799       0.99976077    7.0198867e-05
       3.5484903       0.99975506    7.3438719e-05
       3.5947883       0.99974930    7.6787492e-05
       3.6412408       0.99974351    8.0256767e-05
       3.6889096       0.99973757    8.3923579e-05
       3.7378429       0.99973146    8.7806047e-05
       3.7857786       0.99972547    9.1727264e-05
       3.8361463       0.99971920    9.5971908e-05
       3.8854356       0.99971308    0.00010025867
       3.9360079       0.99970682    0.00010478334
       3.9879141       0.99970045    0.00010957260
       4.0398908       0.99969412    0.00011451631
       4.0932403       0.99968772    0.00011974039
       4.1466304       0.99968142    0.00012512221
       4.2000085       0.99967527    0.00013066903
       4.2547787       0.99966920    0.00013652266
       4.3109962       0.99966342    0.00014271656
       4.3671803       0.99965891    0.00014908713
       4.3970724       0.99966637    0.00015255560
       4.3973843       0.99966633    0.00014604631
       4.4248483       0.99965236    0.00014926527
       4.4824385       0.99964344    0.00015617864
       4.5415476       0.99963586    0.00016351093
       4.6005288       0.99962900    0.00017107061
       4.6610620       0.99962267    0.00017908037
       4.7214109       0.99961738    0.00018733625
       4.7833430       0.99961469    0.00019609527
       4.8149223       0.99963228    0.00020067244
       4.8152963       0.99963224    0.00018788870
       4.8450274       0.99960839    0.00019206964
       4.9083234       0.99959719    0.00020120052
       4.9732952       0.99958868    0.00021090260
       5.0379622       0.99958144    0.00022087963
       5.1043331       0.99957507    0.00023148077
       5.1703190       0.99956986    0.00024237914
       5.2380334       0.99956600    0.00025393498
       5.3052739       0.99956448    0.00026581052
       5.3765937       0.99956842    0.00027883216
       5.4352834       0.99963668    0.00028988738
       5.4357600       0.99963667    0.00024878795
       5.4450703       0.99958790    0.00025025437
       5.5177681       0.99955503    0.00026191287
       5.5899121       0.99954204    0.00027385371
       5.6613813       0.99953276    0.00028605536
       5.7373554       0.99952503    0.00029944374
       5.8099461       0.99951927    0.00031265174
       5.8871914       0.99951477    0.00032713996
       5.9636484       0.99951203    0.00034195137
       6.0421174       0.99951121    0.00035763859
       6.1196570       0.99951276    0.00037364111
       6.1992125       0.99951727    0.00039047389
       6.2211732       0.99951913    0.00039524074
       6.3217920       0.99953226    0.00041760239
       6.4240544       0.99955666    0.00044122840
       6.5279606       0.99960496    0.00046618842
       6.6241518       0.99991162    0.00049013382
       6.6248597       0.99991208    0.00033080971
       6.6335438       0.99975345    0.00033209901
       6.7408389       0.99967224    0.00034831837
       6.8498450       0.99991570    0.00036532647
       6.8526087        1.0000798    0.00036576412
       6.8533663        1.0000798    0.00012071342
       6.9606365       0.99961689    0.00012686617
       7.0732142       0.99953751    0.00013355125
       7.1876178       0.99948170    0.00014057536
       7.3038892       0.99943520    0.00014790505
       7.4220289       0.99939347    0.00015561883
       7.5420798       0.99935448    0.00016373471
       7.6640406       0.99931711    0.00017226158
       7.7880043       0.99928067    0.00018123562
       7.9139725       0.99924473    0.00019067226
       8.0419956       0.99920899    0.00020059501
       8.1720737       0.99917323    0.00021103349
       8.3042592       0.99913728    0.00022200237
       8.4385507       0.99910102    0.00023346047
       8.5750621       0.99906428    0.00024548265
       8.7137350       0.99902696    0.00025810268
       8.8546897       0.99898901    0.00027137177
       8.9978627       0.99895038    0.00028531997
       9.1434487       0.99891098    0.00029998590
       9.2913160       0.99887083    0.00031539816
       9.4415993       0.99882985    0.00033158951
       9.5942992       0.99878804    0.00034860507
       9.7494889       0.99874542    0.00036650354
       9.9071684       0.99870211    0.00038504923
       10.067416       0.99865768    0.00040430951
       10.230230       0.99861212    0.00042431629
       10.395694       0.99856535    0.00044530687
       10.563808       0.99851742    0.00046733338
       10.734753       0.99846827    0.00049045426
       10.908345       0.99841797    0.00051470367
       11.084769       0.99836646    0.00054015158
       11.264025       0.99831375    0.00056683950
       11.446214       0.99825982    0.00059484232
       11.631338       0.99820469    0.00062422119
       11.819506       0.99814839    0.00065503991
       12.010719       0.99809108    0.00068720929
       12.204976       0.99803258    0.00072077448
       12.402344       0.99797280    0.00075530018
       12.602946       0.99791146    0.00079140656
       12.806782       0.99784860    0.00082916593
       13.013918       0.99778435    0.00086872004
       13.224408       0.99771882    0.00091004220
       13.438308       0.99765194    0.00095319792
       13.655661       0.99758361    0.00099790800
       13.876525       0.99751369     0.0010447004
       14.100977       0.99744228     0.0010936724
       14.329049       0.99736953     0.0011449301
       14.560807       0.99729564     0.0011983671
       14.796316       0.99722029     0.0012540287
       15.035629       0.99714355     0.0013120132
       15.278818       0.99706547     0.0013726724
       15.525939       0.99698626     0.0014361252
       15.777068       0.99690630     0.0015024995
       16.032246       0.99682635     0.0015708691
       16.291552       0.99674457     0.0016410066
       16.555051       0.99666131     0.0017138684
       16.822829       0.99657678     0.0017899180
       17.094909       0.99649150     0.0018693146
       17.371407       0.99640623     0.0019522471
       17.652371       0.99632278     0.0020363141
       17.937899       0.99623600     0.0021202170
       18.228019       0.99614584     0.0022079394
       18.522861       0.99605218     0.0023021100
       18.822453       0.99596235     0.0024040875
       19.126878       0.99587796     0.0025105661
       19.436254       0.99580507     0.0026132690
       19.750609       0.99572734     0.0027069110
       20.070068       0.99564380     0.0027946935
       20.394662       0.99555159     0.0028845452
       20.724557       0.99545318     0.0029772754
       21.059754       0.99534855     0.0030729760
       21.400357       0.99523504     0.0031742074
       21.746510       0.99511540     0.0032827514
       22.098216       0.99499321     0.0034103906
       22.455667       0.99487884     0.0035443436
       22.818865       0.99476650     0.0036815452
       23.187932       0.99465646     0.0038243215
       23.562997       0.99455246     0.0039692378
       23.944105       0.99444713     0.0041124585
       24.331390       0.99434049     0.0042570349
       24.724901       0.99423085     0.0044055238
       25.124830       0.99411996     0.0045590464
       25.531178       0.99400899     0.0047180824
       25.944152       0.99389916     0.0048827395
       26.363753       0.99379192     0.0050530780
       26.790202       0.99369109     0.0052292351
       27.223498       0.99360610     0.0054032307
       27.663817       0.99352129     0.0055658795
       28.111219       0.99342733     0.0057097910
       28.565891       0.99332003     0.0058574391
       29.027966       0.99320367     0.0060089530
       29.497445       0.99308026     0.0061643369
       29.974531       0.99294910     0.0063242882
       30.459368       0.99281340     0.0064928518
       30.952033       0.99267448     0.0066658677
       31.452677       0.99253132     0.0068434924
       31.961376       0.99238348     0.0070258559
       32.478290       0.99223031     0.0072130703
       33.003588       0.99207034     0.0074052816
       33.537446       0.99189850     0.0076026435
       34.079864       0.99172189     0.0078271504
       34.631118       0.99155119     0.0080599487
       35.191206       0.99138343     0.0082996383
       35.760424       0.99121653     0.0085464597
       36.338770       0.99105082     0.0088005899
       36.926560       0.99088791     0.0090601965
       37.523796       0.99072308     0.0093245835
       38.130697       0.99055764     0.0095966239
       38.747500       0.99039264     0.0098767050
       39.374204       0.99022894      0.010164897
       40.011053       0.99006779      0.010461522
       40.658172       0.98991197      0.010766762
       41.315826       0.98976390      0.011072137
       41.984014       0.98961319      0.011380511
       42.663156       0.98946279      0.011697616
       43.353107       0.98931682      0.012023415
       44.054311       0.98917822      0.012358353
       44.766930       0.98905158      0.012702676
       45.490961       0.98894696      0.013056542
       46.226730       0.98889998      0.013414346
       46.974407       0.98884225      0.013651910
       47.734168       0.98874107      0.013893741
       48.506191       0.98861107      0.014139755
       49.290857       0.98846480      0.014390238
       50.087968       0.98830533      0.014645011
       50.898117       0.98813410      0.014904426
       51.721308       0.98795238      0.015168344
       52.557969       0.98776052      0.015437093
       53.408107       0.98755935      0.015710447
       54.271941       0.98734913      0.015988697
       55.149702       0.98713007      0.016271904
       56.041625       0.98690252      0.016560042
       56.948221       0.98666650      0.016853411
       57.869232       0.98642277      0.017151863
       58.805178       0.98617149      0.017455619
       59.756341       0.98591407      0.017764750
       60.722717       0.98565873      0.018076004
       61.704889       0.98538865      0.018375352
       62.702862       0.98510072      0.018679642
       63.717270       0.98479890      0.018989146
       64.747791       0.98448373      0.019303554
       65.795081       0.98415380      0.019623136
       66.859136       0.98379643      0.019956649
       67.940670       0.98344206      0.020317319
       69.039313       0.98309392      0.020684390
       70.156202       0.98274828      0.021058426
       71.290962       0.98243255      0.021432136
       72.443980       0.98209657      0.021751534
       73.615671       0.98172778      0.022075764
       74.806474       0.98134387      0.022404946
       76.016389       0.98097233      0.022732357
       77.245866       0.98056961      0.023012691
       77.487500       0.98290000      0.028000000
       82.653333       0.98135000      0.026750000
       88.557143       0.97840000      0.026400000
       95.369231       0.97420000      0.027160000
       103.31667       0.97090000      0.028650000
       113.42055       0.95976000      0.028700000
       115.39464       0.95791500      0.028675000
       117.31643       0.95600000      0.029100000
       119.28035       0.95405000      0.029500000
       121.23998       0.95227000      0.030000000
       123.16710       0.95018000      0.030300000
       123.98000       0.95130000      0.030900000
       125.08197       0.94815000      0.030500000
       127.05082       0.94571500      0.030860000
       128.96984       0.94330000      0.031150000
       130.93805       0.94065000      0.031650000
       132.85754       0.93782000      0.032350000
       134.82682       0.93510000      0.033300000
       136.74516       0.93227500      0.034150000
       137.75556       0.93040000      0.034000000
       138.71422       0.92930000      0.035200000
       140.63386       0.92622000      0.036625000
       142.55326       0.92320000      0.037800000
       144.52410       0.91975000      0.039070000
       146.46882       0.91625000      0.040750000
       148.41328       0.91283000      0.042500000
       150.38451       0.90897000      0.044500000
       152.30397       0.90530000      0.046800000
       154.27498       0.90150000      0.049150000
       154.97500       0.90200000      0.045500000
       156.19528       0.89800000      0.051375000
       158.16600       0.89455000      0.054800000
       160.08780       0.89060000      0.058050000
       162.01030       0.88710000      0.061000000
       163.97953       0.88335000      0.064400000
       165.90170       0.88005000      0.067825000
       167.87402       0.87650000      0.071500000
       169.84725       0.87320000      0.075950000
       171.76741       0.86945000      0.079850000
       173.69011       0.86630000      0.084300000
       175.66132       0.86280000      0.088486000
       177.11429       0.86600000      0.084500000
       177.58616       0.85920000      0.092419000
       179.55885       0.85590000      0.095901000
       181.53067       0.85260000       0.10024000
       183.45393       0.85035000       0.10472000
       185.42670       0.84760000       0.10821000
       188.34503       0.84605000       0.11670000
       193.22060       0.84065000       0.13125000
       198.09859       0.83735000       0.14795000
       202.97970       0.83760000       0.16565000
       206.63333       0.83500000       0.16500000
       207.85971       0.83670000       0.18100000
       212.74624       0.84170000       0.19405000
       217.63095       0.84310000       0.21095000
       222.51736       0.84830000       0.22715000
       227.40696       0.85835000       0.24490000
       232.29844       0.87345000       0.26240000
       237.19151       0.89280000       0.27555000
       242.08224       0.91465000       0.27870000
       246.98195       0.94125000       0.27325000
       247.96000       0.92430000       0.26580000
       251.87924       0.94915000       0.25320000
       256.77775       0.95140000       0.23635000
       261.67711       0.93630000       0.21825000
       266.58353       0.92044000       0.21195000
       271.48707       0.90330000       0.21355000
       276.39558       0.89160000       0.22460000
       281.29963       0.88130000       0.24160000
       286.20897       0.88000000       0.26640000
       291.12170       0.88690000       0.29045000
       296.03629       0.91030000       0.31550000
       300.95155       0.93371500       0.31490000
       305.86668       0.94930500       0.28840000
       310.78913       0.94535000       0.24975000
       315.71174       0.93645000       0.21990000
       320.63517       0.93680000       0.20335000
       325.55208       0.93185000       0.17925000
       330.48114       0.93635000       0.16345000
       335.40742       0.93990000       0.14270000
       344.389      0.846000      0.320000
       354.229      0.848000      0.306000
       359.362      0.844000      0.298000
       364.647      0.838000      0.291000
       370.090      0.829000      0.285000
       375.697      0.816000      0.278000
       381.477      0.797000      0.286000
       387.438      0.791000      0.295000
       393.587      0.788000      0.294000
       399.935      0.778000      0.293000
       406.492      0.765000      0.292000
       413.267      0.750000      0.295000
       416.740      0.742000      0.296000
       420.271      0.733000      0.297000
       423.863      0.724000      0.298000
       427.517      0.712000      0.301000
       431.235      0.700000      0.306000
       435.018      0.690000      0.310000
       438.867      0.679000      0.318000
       442.786      0.671000      0.322000
       446.775      0.656000      0.328000
       450.836      0.643000      0.336000
       454.972      0.631000      0.346000
       459.185      0.619000      0.357000
       462.612      0.610000      0.365000
       466.090      0.600000      0.375000
       469.621      0.591000      0.383000
       473.206      0.580000      0.394000
       476.846      0.571000      0.404000
       480.543      0.560000      0.415000
       484.297      0.548000      0.429000
       488.110      0.537000      0.444000
       491.984      0.528000      0.461000
       495.920      0.521000      0.476000
       499.919      0.511000      0.494000
       503.984      0.503000      0.513000
       508.115      0.497000      0.534000
       512.314      0.491000      0.554000
       516.583      0.487000      0.575000
       520.924      0.483000      0.598000
       525.339      0.484000      0.621000
       529.829      0.486000      0.643000
       534.397      0.490000      0.663000
       539.043      0.494000      0.679000
       543.772      0.494000      0.695000
       548.584      0.493000      0.712000
       553.482      0.492000      0.730000
       558.468      0.491000      0.751000
       563.545      0.491000      0.773000
       568.716      0.492000      0.796000
       573.981      0.496000      0.819000
       579.346      0.499000      0.842000
       584.811      0.503000      0.866000
       590.381      0.508000      0.892000
       596.058      0.517000      0.918000
       601.845      0.525000      0.943000
       607.745      0.537000      0.969000
       613.762      0.549000      0.994000
       619.900      0.563000       1.02000
       626.162      0.579000       1.05000
       632.551      0.599000       1.07000
       639.072      0.621000       1.09000
       645.729      0.642000       1.11000
       652.526      0.665000       1.13000
       659.468      0.688000       1.15000
       666.559      0.712000       1.16000
       673.804      0.738000       1.18000
       681.209      0.766000       1.19000
       688.778      0.796000       1.20000
       696.517      0.822000       1.20000
       704.432      0.847000       1.21000
       712.529      0.874000       1.21000
       720.814      0.900000       1.20000
       729.294      0.922000       1.20000
       737.976      0.944000       1.19000
       746.867      0.959000       1.18000
       755.976      0.973000       1.17000
       765.309      0.980000       1.15000
       774.875      0.981000       1.14000
       784.684      0.976000       1.13000
       794.744      0.966000       1.12000
       805.065      0.951000       1.12000
       815.658      0.933000       1.13000
       826.533      0.917000       1.14000
       837.703      0.904000       1.17000
       849.178      0.900000       1.20000
       860.972      0.901000       1.23000
       873.099      0.906000       1.25000
       885.571      0.913000       1.28000
       898.406      0.923000       1.32000
       911.618      0.941000       1.35000
       925.224      0.962000       1.37000
       939.242      0.984000       1.40000
       953.692       1.01000       1.42000
       968.594       1.04000       1.44000
       983.968       1.07000       1.46000
       999.839       1.10000       1.47000
       1016.23       1.13000       1.48000
       1033.17       1.16000       1.48000
       1041.85       1.18000       1.48000
       1050.68       1.20000       1.48000
       1059.66       1.21000       1.48000
       1068.79       1.22000       1.48000
       1078.09       1.24000       1.47000
       1087.54       1.25000       1.46000
       1097.17       1.26000       1.45000
       1106.96       1.27000       1.44000
       1116.94       1.28000       1.43000
       1127.09       1.28000       1.42000
       1137.43       1.29000       1.41000
       1147.96       1.29000       1.39000
       1158.69       1.28000       1.38000
       1169.62       1.28000       1.36000
       1180.76       1.26000       1.34000
       1192.12       1.24000       1.33000
       1203.69       1.22000       1.33000
       1215.49       1.19000       1.33000
       1227.52       1.16000       1.33000
       1239.80       1.13000       1.34000
       1252.32       1.11000       1.36000
       1265.10       1.09000       1.38000
       1278.14       1.07000       1.41000
       1291.46       1.05000       1.44000
       1305.05       1.04000       1.47000
       1318.94       1.03000       1.50000
       1333.12       1.03000       1.52000
       1347.61       1.02000       1.55000
       1362.42       1.02000       1.57000
       1377.56       1.01000       1.60000
       1393.03       1.02000       1.63000
       1408.86       1.01000       1.65000
       1425.06      0.999000       1.67000
       1441.63      0.986000       1.70000
       1458.59      0.973000       1.73000
       1475.95      0.956000       1.76000
       1493.73      0.943000       1.81000
       1511.95      0.935000       1.86000
       1530.62      0.935000       1.91000
       1549.75      0.937000       1.95000
       1569.37      0.932000       2.00000
       1589.49      0.930000       2.06000
       1610.13      0.937000       2.12000
       1631.32      0.950000       2.18000
       1653.07      0.964000       2.24000
       1675.41      0.979000       2.29000
       1698.36      0.993000       2.36000
       1721.94       1.01000       2.43000
       1746.20       1.04000       2.49000
       1771.14       1.06000       2.56000
       1796.81       1.09000       2.63000
       1823.24       1.12000       2.70000
       1850.45       1.16000       2.78000
       1878.48       1.21000       2.87000
       1907.38       1.26000       2.95000
       1937.19       1.31000       3.04000
       1967.94       1.38000       3.14000
       1999.68       1.47000       3.24000
       2032.46       1.58000       3.33000
       2066.33       1.70000       3.42000
       2101.36       1.83000       3.52000
       2137.59       2.00000       3.61000
       2175.09       2.20000       3.67000
       2213.93       2.43000       3.70000
       2254.18       2.68000       3.68000
       2295.93       2.92000       3.58000
       2339.25       3.11000       3.43000
       2384.23       3.27000       3.27000
       2430.98       3.38000       3.05000
       2479.60       3.40000       2.85000
       2530.20       3.37000       2.68000
       2582.92       3.33000       2.57000
       2637.87       3.29000       2.48000
       2695.22       3.24000       2.41000
       2755.11       3.19000       2.35000
       2817.73       3.13000       2.32000
       2883.26       3.07000       2.31000
       2951.90       3.01000       2.33000
       3023.90       2.97000       2.37000
       3099.50       2.95000       2.43000
       3138.73       2.95000       2.46000
       3178.97       2.96000       2.50000
       3220.26       2.98000       2.53000
       3262.63       2.99000       2.56000
       3306.13       3.02000       2.60000
       3350.81       3.05000       2.62000
       3396.71       3.09000       2.65000
       3443.89       3.13000       2.67000
       3492.39       3.18000       2.69000
       3542.29       3.24000       2.70000
       3593.62       3.32000       2.70000
       3646.47       3.39000       2.66000
       3700.90       3.43000       2.60000
       3756.97       3.45000       2.55000
       3814.77       3.45000       2.49000
       3874.38       3.43000       2.45000
       3935.87       3.41000       2.43000
       3999.35       3.39000       2.41000
       4064.92       3.37000       2.42000
       4132.67       3.35000       2.42000
       4202.71       3.33000       2.43000
       4275.17       3.32000       2.45000
       4350.18       3.31000       2.47000
       4427.86       3.30000       2.49000
       4508.36       3.31000       2.53000
       4591.85       3.31000       2.55000
       4678.49       3.32000       2.59000
       4768.46       3.34000       2.62000
       4861.96       3.35000       2.64000
       4959.20       3.38000       2.68000
       5060.41       3.42000       2.71000
       5165.83       3.45000       2.72000
       5275.75       3.48000       2.72000
       5390.44       3.50000       2.72000
       5510.22       3.50000       2.73000
       5635.45       3.49000       2.75000
       5766.51       3.51000       2.81000
       5903.81       3.54000       2.84000
       6047.81       3.57000       2.86000
       6199.00       3.60000       2.89000
       6357.95       3.65000       2.92000
       6525.26       3.70000       2.94000
       6701.62       3.76000       2.95000
       6887.78       3.82000       2.91000
       7084.57       3.85000       2.86000
       7292.94       3.84000       2.78000
       7513.94       3.78000       2.72000
       7748.75       3.67000       2.68000
       7998.71       3.56000       2.73000
       8265.33       3.48000       2.79000
       8550.34       3.38000       2.85000
       8855.71       3.29000       2.96000
       9183.70       3.20000       3.07000
       9536.92       3.12000       3.24000
       9918.40       3.05000       3.39000
       10331.7       3.00000       3.64000
       10780.9       3.02000       3.83000
       11270.9       3.05000       4.04000
       11807.6       3.11000       4.19000
       12398.0       3.14000       4.32000
       12651.0       3.15000       4.36000
       12914.6       3.15000       4.41000
       13189.4       3.15000       4.43000
       13476.1       3.14000       4.45000
       13775.6       3.11000       4.44000
       14088.6       3.05000       4.42000
       14250.6       3.00000       4.39000
       14416.3       2.92000       4.37000
       14585.9       2.80000       4.33000
       14759.5       2.62000       4.37000
       14937.3       2.47000       4.47000
       15119.5       2.36000       4.61000
       15497.5       2.22000       4.85000
       15894.9       2.12000       5.05000
       16313.2       1.97000       5.27000
       16754.1       1.83000       5.52000
       17219.4       1.70000       5.81000
       17711.4       1.59000       6.13000
       18232.4       1.52000       6.45000
       18784.8       1.45000       6.78000
       19371.9       1.36000       7.14000
       19996.8       1.28000       7.52000
       20663.3       1.21000       7.96000
       21375.9       1.18000       8.44000
       22139.3       1.20000       8.94000
       22959.3       1.23000       9.45000
       23842.3       1.30000       9.98000
       24796.0       1.40000       10.5000
       25829.2       1.54000       11.1000
       26952.2       1.69000       11.6000
       28177.3       1.82000       12.1000
       29519.0       1.92000       12.6000
       30995.0       1.94000       13.2000
       32626.3       1.86000       13.9000
       34438.9       1.82000       14.7000
       36464.7       1.71000       15.7000
       38743.8       1.72000       16.9000
       41326.7       1.83000       18.3000
       49592.0       2.56000       22.4000
       61990.0       3.87000       28.3000
       68877.8       4.72000       31.5000
       77487.5       5.92000       35.3000
       88557.1       7.58000       40.2000
       103317.       10.1000       46.4000
       123980.       14.1000       54.7000
       137756.       17.0000       60.0000
       154975.       20.9000       66.3000
       177114.       26.5000       73.8000
       206633.       34.5000       82.9000
       247960.       46.5000       93.7000
