;  Optical constants for Y
;  
;  Concatenation of:
;
;  Y_llnl_cxro + Y_sae-lao + Y-tm_knyazev
;
;    Lambda (A)            n            k
;-----------------------------------------
      0.12398425       0.99999992    3.1516213e-10
      0.12460729       0.99999992    3.2147371e-10
      0.12523662       0.99999992    3.2794388e-10
      0.12651454       0.99999992    3.4138207e-10
      0.12848109       0.99999991    3.6285981e-10
      0.13050974       0.99999991    3.8605705e-10
      0.13189814       0.99999991    4.0254924e-10
      0.13331640       0.99999991    4.1993552e-10
      0.13550191       0.99999990    4.4781599e-10
      0.13776028       0.99999990    4.7805607e-10
      0.13930815       0.99999990    4.9958868e-10
      0.14089119       0.99999989    5.2235128e-10
      0.14333439       0.99999989    5.5898852e-10
      0.14586382       0.99999989    5.9890577e-10
      0.14760030       0.99999988    6.2751593e-10
      0.14937861       0.99999988    6.5786031e-10
      0.15212791       0.99999988    7.0691194e-10
      0.15498031       0.99999987    7.6063588e-10
      0.15634836       0.99999987    7.8738973e-10
      0.15774078       0.99999987    8.1533487e-10
      0.16078881       0.99999986    8.7908344e-10
      0.16313717       0.99999986    9.3067809e-10
      0.16421755       0.99999986    9.5515858e-10
      0.16540055       0.99999985    9.8250918e-10
      0.16709468       0.99999985    1.0225871e-09
      0.16868605       0.99999985    1.0613350e-09
      0.17030804       0.99999985    1.1019424e-09
      0.17220035       0.99999984    1.1507690e-09
      0.17462570       0.99999984    1.2156832e-09
      0.17712036       0.99999983    1.2852603e-09
      0.17968732       0.99999983    1.3597305e-09
      0.18232978       0.99999982    1.4396957e-09
      0.18395289       0.99999982    1.4905217e-09
      0.18552185       0.99999982    1.5409059e-09
      0.18813998       0.99999981    1.6277932e-09
      0.19074500       0.99999981    1.7178139e-09
      0.19372539       0.99999980    1.8249617e-09
      0.19680040       0.99999979    1.9406401e-09
      0.19901164       0.99999979    2.0271327e-09
      0.20160041       0.99999978    2.1319953e-09
      0.20392146       0.99999978    2.2294000e-09
      0.20664042       0.99999977    2.3476664e-09
      0.20733152       0.99999977    2.3783395e-09
      0.20823690       0.99999977    2.4189630e-09
      0.21193889       0.99999976    2.5904678e-09
      0.21376595       0.99999976    2.6783646e-09
      0.21551234       0.99999975    2.7644329e-09
      0.21828213       0.99999975    2.9051249e-09
      0.22140045       0.99999974    3.0698106e-09
      0.22542591       0.99999973    3.2925384e-09
      0.22960046       0.99999972    3.5355579e-09
      0.23393255       0.99999971    3.8015738e-09
      0.23843125       0.99999970    4.0923864e-09
      0.24074612       0.99999969    4.2482895e-09
      0.24310637       0.99999969    4.4117478e-09
      0.24551337       0.99999968    4.5832026e-09
      0.24796850       0.99999967    4.7631213e-09
      0.25047323       0.99999967    4.9512504e-09
      0.25302908       0.99999966    5.1488430e-09
      0.25563763       0.99999965    5.3564652e-09
      0.25830052       0.99999964    5.5747361e-09
      0.26101947       0.99999964    5.8039719e-09
      0.26379628       0.99999963    6.0452097e-09
      0.26663280       0.99999962    6.2992137e-09
      0.26953098       0.99999961    6.5668177e-09
      0.27369592       0.99999960    6.9660046e-09
      0.27861629       0.99999959    7.4600613e-09
      0.28306906       0.99999957    7.9288904e-09
      0.28833547       0.99999956    8.5111267e-09
      0.29310697       0.99999954    9.0626920e-09
      0.29875723       0.99999952    9.7494804e-09
      0.30388297       0.99999951    1.0405103e-08
      0.30996062       0.99999949    1.1224025e-08
      0.31388418       0.99999948    1.1774011e-08
      0.31790833       0.99999946    1.2358473e-08
      0.32203701       0.99999945    1.2980067e-08
      0.32627434       0.99999943    1.3641656e-08
      0.33062467       0.99999942    1.4345708e-08
      0.33509257       0.99999940    1.5096292e-08
      0.33968288       0.99999939    1.5897106e-08
      0.34411393       0.99999937    1.6699520e-08
      0.34729482       0.99999936    1.7293570e-08
      0.35123017       0.99999934    1.8050081e-08
      0.35525573       0.99999933    1.8848408e-08
      0.35937464       0.99999931    1.9691217e-08
      0.36359018       0.99999930    2.0582074e-08
      0.36681731       0.99999928    2.1282385e-08
      0.37121033       0.99999927    2.2262624e-08
      0.37570985       0.99999925    2.3300711e-08
      0.38031979       0.99999923    2.4393761e-08
      0.38385217       0.99999922    2.5256207e-08
      0.38866536       0.99999920    2.6467294e-08
      0.39360079       0.99999918    2.7752960e-08
      0.39738542       0.99999916    2.8763604e-08
      0.40254627       0.99999914    3.0184895e-08
      0.40784293       0.99999911    3.1696586e-08
      0.41328083       0.99999909    3.4002992e-08
      0.41996528       0.99999906    3.6120443e-08
      0.42675785       0.99999903    3.8366780e-08
      0.43365996       0.99999900    4.0749745e-08
      0.44067464       0.99999897    4.3277028e-08
      0.44780188       0.99999893    4.5957204e-08
      0.45504485       0.99999890    4.8798858e-08
      0.46240522       0.99999886    5.1812150e-08
      0.46988471       0.99999883    5.5006359e-08
      0.47748323       0.99999879    5.8391390e-08
      0.48520618       0.99999875    6.1979342e-08
      0.49305362       0.99999871    6.5781331e-08
      0.50102946       0.99999867    6.9810081e-08
      0.50913375       0.99999863    7.4077576e-08
      0.51736847       0.99999859    7.8597296e-08
      0.52573570       0.99999854    8.3383823e-08
      0.53423986       0.99999849    8.8452542e-08
      0.54288101       0.99999845    9.3818195e-08
      0.55166142       0.99999840    9.9497807e-08
      0.56058349       0.99999835    1.0550808e-07
      0.56964967       0.99999830    1.1186788e-07
      0.57886523       0.99999825    1.1859688e-07
      0.58822755       0.99999819    1.2571340e-07
      0.59774203       0.99999814    1.3323956e-07
      0.60740863       0.99999808    1.4119570e-07
      0.61723320       0.99999802    1.4960634e-07
      0.62721577       0.99999796    1.5849449e-07
      0.63736268       0.99999790    1.6788744e-07
      0.64767070       0.99999784    1.7780713e-07
      0.65814639       0.99999778    1.8828396e-07
      0.66878971       0.99999772    1.9934440e-07
      0.67960781       0.99999767    2.1102036e-07
      0.69060079       0.99999761    2.2334097e-07
      0.70176851       0.99999756    2.3633628e-07
      0.71312284       0.99999752    2.5004589e-07
      0.72465574       0.99999756    2.6449591e-07
      0.72767116       0.99999802    2.6837066e-07
      0.72767970       0.99999802    3.9964226e-08
      0.73637533       0.99999741    4.0861020e-08
      0.74828597       0.99999727    4.3413500e-08
      0.76038766       0.99999715    4.6125070e-08
      0.77268974       0.99999703    4.9006319e-08
      0.78518752       0.99999692    5.2066856e-08
      0.79788566       0.99999680    5.5318195e-08
      0.81078912       0.99999669    5.8772243e-08
      0.82390321       0.99999657    6.2442041e-08
      0.83722795       0.99999645    6.6340595e-08
      0.85077472       0.99999633    7.0483296e-08
      0.86453191       0.99999620    7.4883116e-08
      0.87851717       0.99999607    7.9558151e-08
      0.89272445       0.99999593    8.4524106e-08
      0.90716643       0.99999579    8.9800669e-08
      0.92183655       0.99999565    9.5405128e-08
      0.93674824       0.99999550    1.0135997e-07
      0.95189443       0.99999535    1.0768449e-07
      0.96729692       0.99999519    1.1440613e-07
      0.98294103       0.99999503    1.2154480e-07
      0.99884192       0.99999486    1.2912937e-07
       1.0149914       0.99999469    1.3718434e-07
       1.0314143       0.99999451    1.4574420e-07
       1.0480937       0.99999433    1.5483522e-07
       1.0650470       0.99999413    1.6449472e-07
       1.0822742       0.99999394    1.7475464e-07
       1.0997751       0.99999374    1.8565163e-07
       1.1175592       0.99999353    1.9722601e-07
       1.1356365       0.99999331    2.0952443e-07
       1.1540074       0.99999308    2.2258745e-07
       1.1726719       0.99999285    2.3646301e-07
       1.1916406       0.99999261    2.5120253e-07
       1.2109138       0.99999237    2.6685587e-07
       1.2305030       0.99999211    2.8348490e-07
       1.2504021       0.99999185    3.0114490e-07
       1.2706260       0.99999158    3.2030964e-07
       1.2911771       0.99999129    3.4106724e-07
       1.3120610       0.99999100    3.6317000e-07
       1.3332830       0.99999070    3.8670895e-07
       1.3548474       0.99999039    4.1176766e-07
       1.3767614       0.99999007    4.3845654e-07
       1.3990297       0.99998974    4.6687049e-07
       1.4216568       0.99998940    4.9712579e-07
       1.4446523       0.99998905    5.2934409e-07
       1.4680180       0.99998869    5.6365149e-07
       1.4917624       0.99998831    6.0018084e-07
       1.5158889       0.99998793    6.3907495e-07
       1.5404086       0.99998753    6.7910342e-07
       1.5653233       0.99998712    7.2026006e-07
       1.5906408       0.99998669    7.6391092e-07
       1.6163693       0.99998625    8.1021156e-07
       1.6425127       0.99998580    8.5931539e-07
       1.6690775       0.99998533    9.1139381e-07
       1.6960747       0.99998484    9.6662973e-07
       1.7235068       0.99998434    1.0252145e-06
       1.7513829       0.99998382    1.0873505e-06
       1.7797106       0.99998329    1.1532536e-06
       1.8084974       0.99998274    1.2231524e-06
       1.8377457       0.99998217    1.2972764e-06
       1.8674717       0.99998158    1.3759064e-06
       1.8976755       0.99998097    1.4592925e-06
       1.9283713       0.99998034    1.5475276e-06
       1.9595592       0.99997970    1.6410894e-06
       1.9912542       0.99997903    1.7403071e-06
       2.0234629       0.99997834    1.8455308e-06
       2.0561883       0.99997763    1.9571073e-06
       2.0894473       0.99997689    2.0754347e-06
       2.1232398       0.99997613    2.2009128e-06
       2.1575837       0.99997535    2.3339830e-06
       2.1924790       0.99997454    2.4750921e-06
       2.2279410       0.99997371    2.6247400e-06
       2.2639777       0.99997285    2.7834319e-06
       2.3005973       0.99997197    2.9517303e-06
       2.3378081       0.99997105    3.1301939e-06
       2.3756186       0.99997011    3.3194351e-06
       2.4140424       0.99996914    3.5201386e-06
       2.4530886       0.99996814    3.7329703e-06
       2.4927620       0.99996712    3.9586500e-06
       2.5330824       0.99996606    4.1936414e-06
       2.5740550       0.99996497    4.4348753e-06
       2.6156849       0.99996385    4.6899456e-06
       2.6579939       0.99996269    4.9597181e-06
       2.7009877       0.99996149    5.2450021e-06
       2.7446721       0.99996025    5.5466766e-06
       2.7890648       0.99995898    5.8657291e-06
       2.8341719       0.99995767    6.2030997e-06
       2.8800192       0.99995631    6.5599205e-06
       2.9266003       0.99995491    6.9372291e-06
       2.9739352       0.99995346    7.3362536e-06
       3.0220307       0.99995197    7.7791519e-06
       3.0709086       0.99995045    8.2487897e-06
       3.1205844       0.99994888    8.7468666e-06
       3.1710581       0.99994728    9.2749723e-06
       3.2223454       0.99994564    9.8349537e-06
       3.2744626       0.99994395    1.0421756e-05
       3.3274268       0.99994223    1.1035331e-05
       3.3812472       0.99994045    1.1685008e-05
       3.4359325       0.99993863    1.2372893e-05
       3.4915109       0.99993676    1.3101355e-05
       3.5479825       0.99993485    1.3872602e-05
       3.6053672       0.99993289    1.4689318e-05
       3.6636748       0.99993088    1.5554033e-05
       3.7229377       0.99992883    1.6473873e-05
       3.7831564       0.99992673    1.7459658e-05
       3.8443417       0.99992461    1.8504284e-05
       3.9065168       0.99992245    1.9611420e-05
       3.9697063       0.99992025    2.0784909e-05
       4.0339103       0.99991804    2.2028554e-05
       4.0991543       0.99991580    2.3346596e-05
       4.1654656       0.99991355    2.4743734e-05
       4.2328301       0.99991130    2.6223956e-05
       4.3012899       0.99990907    2.7793058e-05
       4.3708599       0.99990689    2.9456099e-05
       4.4415557       0.99990479    3.1107545e-05
       4.5133926       0.99990268    3.2745199e-05
       4.5864037       0.99990052    3.4469325e-05
       4.6605890       0.99989840    3.6284246e-05
       4.7359651       0.99989633    3.8194437e-05
       4.8125674       0.99989435    4.0205204e-05
       4.8903959       0.99989250    4.2321856e-05
       4.9695078       0.99989086    4.4549996e-05
       5.0498841       0.99988956    4.6895480e-05
       5.1315648       0.99988889    4.9364517e-05
       5.2145492       0.99989109    5.1963198e-05
       5.2256702       0.99989726    5.2318141e-05
       5.2261107       0.99989727    4.6527894e-05
       5.2989025       0.99988656    4.8874312e-05
       5.3846029       0.99988463    5.1744339e-05
       5.4716958       0.99988409    5.4555035e-05
       5.5602058       0.99988475    5.7138328e-05
       5.6501326       0.99988746    5.9843044e-05
       5.7415267       0.99989998    6.2676658e-05
       5.7517281       0.99991866    6.2998367e-05
       5.7522618       0.99991870    4.6205313e-05
       5.8343882       0.99989257    4.9038572e-05
       5.9287432       0.99990311    5.2455855e-05
       5.9604947       0.99996150    5.3645178e-05
       5.9610678       0.99996151    1.3770543e-05
       6.0246483       0.99989057    1.4294716e-05
       6.1220744       0.99987409    1.5125505e-05
       6.2211108       0.99986304    1.6004803e-05
       6.3217276       0.99985373    1.6935071e-05
       6.4239878       0.99984521    1.7919556e-05
       6.5278919       0.99983710    1.8961172e-05
       6.6334728       0.99982921    2.0063293e-05
       6.7407656       0.99982143    2.1193595e-05
       6.8497693       0.99981364    2.2329309e-05
       6.9605584       0.99980576    2.3526043e-05
       7.0731335       0.99979778    2.4786888e-05
       7.1875344       0.99978966    2.6115292e-05
       7.3038032       0.99978137    2.7515040e-05
       7.4219400       0.99977291    2.8989730e-05
       7.5419881       0.99976424    3.0543465e-05
       7.6639458       0.99975535    3.2180196e-05
       7.7879065       0.99974623    3.3904872e-05
       7.9138715       0.99973686    3.5722003e-05
       8.0418913       0.99972721    3.7636679e-05
       8.1719659       0.99971727    3.9653777e-05
       8.3041479       0.99970702    4.1820572e-05
       8.4384358       0.99969649    4.4137025e-05
       8.5749435       0.99968567    4.6582354e-05
       8.7136125       0.99967453    4.9162698e-05
       8.8545632       0.99966307    5.1886294e-05
       8.9977974       0.99965125    5.4761009e-05
       9.1433138       0.99963909    5.7794388e-05
       9.2911768       0.99962656    6.0995747e-05
       9.4414555       0.99961365    6.4374769e-05
       9.5371647       0.99957348    6.6257000e-05
       9.5444497       0.99956199    6.1713700e-05
       9.5518897       0.99955849    8.5817000e-05
       9.5590197       0.99957293    9.4446600e-05
       9.5666147       0.99958662    8.9671700e-05
       9.5738997       0.99958520    6.8375500e-05
       9.5811848       0.99957469    6.9325100e-05
       9.5886248       0.99956620    6.7110100e-05
       9.5962198       0.99955733    7.7430600e-05
       9.6035048       0.99956476    9.5850500e-05
       9.6110998       0.99957607    9.0001300e-05
       9.6183848       0.99957601    8.2288200e-05
       9.6258248       0.99957163    8.1562300e-05
       9.6335748       0.99957476    8.8222900e-05
       9.6410148       0.99956423    7.0206900e-05
       9.6486099       0.99956413    0.00010349400
       9.6557399       0.99957907    9.1927800e-05
       9.6636449       0.99958418    8.7682700e-05
       9.6707749       0.99957161    6.3239000e-05
       9.6786799       0.99956166    8.3493600e-05
       9.6861199       0.99955368    7.3851600e-05
       9.6935599       0.99956042    0.00010932500
       9.7013099       0.99956617    8.2942400e-05
       9.7089050       0.99956287    0.00010525000
       9.7163450       0.99957888    0.00010467200
       9.7245600       0.99958119    8.6972100e-05
       9.7315350       0.99956997    8.3390700e-05
       9.7394400       0.99957555    9.8337400e-05
       9.7467250       0.99957454    7.1408400e-05
       9.7549400       0.99955395    7.5512900e-05
       9.7623800       0.99955518    0.00010403800
       9.7701301       0.99956654    0.00010129900
       9.7778801       0.99957658    0.00010501100
       9.7854751       0.99958411    8.9972200e-05
       9.7932251       0.99957253    7.3645400e-05
       9.8009751       0.99956837    9.0086400e-05
       9.8087251       0.99956740    7.5751800e-05
       9.8166301       0.99956135    8.3214400e-05
       9.8240701       0.99956055    8.0418500e-05
       9.8325951       0.99954950    7.5955000e-05
       9.8397252       0.99954516    9.7183900e-05
       9.8476302       0.99955345    0.00010194100
       9.8555352       0.99956059    0.00010057600
       9.8634402       0.99956254    9.5389500e-05
       9.8711902       0.99956135    9.3765000e-05
       9.8790952       0.99956145    9.3990300e-05
       9.8868452       0.99956179    9.1577100e-05
       9.8949052       0.99956077    8.9580600e-05
       9.9026553       0.99955656    8.4677200e-05
       9.9108703       0.99954709    8.4869600e-05
       9.9183103       0.99954847    0.00010165400
       9.9265253       0.99955263    9.5576900e-05
       9.9341203       0.99955597    0.00010130600
       9.9424903       0.99955366    8.8838200e-05
       9.9505503       0.99954972    9.9954900e-05
       9.9584553       0.99955463    0.00010002400
       9.9665153       0.99955321    9.5069700e-05
       9.9745754       0.99955435    0.00010267900
       9.9826354       0.99955979    9.8686200e-05
       9.9902304       0.99956142    9.3841900e-05
       9.9984454       0.99955581    8.3896800e-05
       10.006660       0.99955013    8.9737600e-05
       10.014875       0.99954783    8.7381700e-05
       10.022780       0.99954387    9.0458500e-05
       10.030840       0.99954385    9.4186800e-05
       10.038900       0.99954690    9.5435900e-05
       10.046960       0.99954341    8.6564300e-05
       10.055175       0.99953980    9.6931800e-05
       10.063391       0.99954096    9.4296700e-05
       10.071606       0.99953995    9.8074200e-05
       10.079976       0.99954298    9.8993300e-05
       10.088036       0.99953576    8.9431300e-05
       10.096561       0.99953402    0.00010773700
       10.104311       0.99954062    0.00010368400
       10.112991       0.99954557    0.00010722600
       10.120896       0.99954251    9.1416400e-05
       10.129421       0.99953714    0.00010207700
       10.137481       0.99954348    0.00010375100
       10.146006       0.99954219    9.3583300e-05
       10.154066       0.99953346    9.5488100e-05
       10.162436       0.99954135    0.00011164100
       10.170806       0.99954305    8.7314900e-05
       10.179021       0.99952961    9.1892400e-05
       10.187701       0.99952969    0.00010253400
       10.196071       0.99953484    0.00010040900
       10.204286       0.99952900    9.1621800e-05
       10.212501       0.99952517    0.00010435700
       10.221181       0.99953108    0.00010626500
       10.229551       0.99953387    0.00010233600
       10.237921       0.99953256    9.8287700e-05
       10.246601       0.99952764    9.5753700e-05
       10.254816       0.99952549    0.00010084700
       10.263651       0.99952480    9.9018300e-05
       10.271866       0.99951924    9.8571800e-05
       10.280546       0.99951922    0.00010958100
       10.288761       0.99952874    0.00011185900
       10.297441       0.99952732    9.7962500e-05
       10.305656       0.99952407    0.00010655200
       10.314646       0.99952620    0.00010186100
       10.323171       0.99952153    9.8643000e-05
       10.332006       0.99952043    0.00010505900
       10.340531       0.99951968    0.00010063900
       10.348901       0.99952270    0.00010813700
       10.357581       0.99952154    9.3762600e-05
       10.366261       0.99951584    9.9069800e-05
       10.375406       0.99950902    9.2359000e-05
       10.383931       0.99950378    0.00010569900
       10.392456       0.99950532    0.00010743000
       10.401136       0.99950729    0.00011269100
       10.409661       0.99951059    0.00011225300
       10.418651       0.99951138    0.00011054500
       10.427331       0.99950789    0.00010838800
       10.436321       0.99951292    0.00011970100
       10.444691       0.99951560    0.00010481700
       10.454146       0.99951001    0.00010604200
       10.462516       0.99950500    0.00010444500
       10.471506       0.99950409    0.00011287600
       10.480186       0.99951107    0.00011235600
       10.488866       0.99950249    9.5905000e-05
       10.498166       0.99949705    0.00011650900
       10.506846       0.99950066    0.00011026800
       10.515991       0.99950179    0.00011806700
       10.524826       0.99950598    0.00011263900
       10.533506       0.99950028    0.00010659400
       10.542496       0.99949641    0.00011427500
       10.551641       0.99949953    0.00011794800
       10.560786       0.99950429    0.00011724300
       10.569621       0.99950539    0.00011051000
       10.578766       0.99950143    0.00010600500
       10.587911       0.99949504    0.00010508600
       10.596591       0.99949272    0.00011015700
       10.605581       0.99948841    0.00010645900
       10.614726       0.99948787    0.00011866600
       10.624026       0.99949313    0.00011640100
       10.633016       0.99949233    0.00011292100
       10.642161       0.99949274    0.00011478600
       10.651461       0.99948877    0.00010576800
       10.660296       0.99948329    0.00011226700
       10.669751       0.99948361    0.00011223500
       10.678741       0.99947398    0.00010739400
       10.688041       0.99947534    0.00012962400
       10.697651       0.99948209    0.00012023000
       10.706331       0.99948091    0.00012430100
       10.715477       0.99948291    0.00012351800
       10.725087       0.99948355    0.00012234000
       10.734542       0.99948027    0.00011857100
       10.743997       0.99947830    0.00012416900
       10.752832       0.99947917    0.00012427100
       10.762287       0.99947975    0.00012547800
       10.771742       0.99947812    0.00012324900
       10.780887       0.99948228    0.00013185200
       10.790497       0.99948275    0.00011879900
       10.799487       0.99948169    0.00012600400
       10.809562       0.99947706    0.00011336500
       10.818862       0.99947366    0.00012818100
       10.828162       0.99947636    0.00012193900
       10.837307       0.99947788    0.00012711900
       10.846917       0.99947751    0.00011771800
       10.856527       0.99947374    0.00012057900
       10.866137       0.99947030    0.00011729400
       10.875282       0.99946890    0.00012296400
       10.885202       0.99946874    0.00011947300
       10.894657       0.99946392    0.00011953200
       10.904267       0.99946318    0.00012582400
       10.913567       0.99946501    0.00012367100
       10.923332       0.99946171    0.00012411000
       10.933252       0.99946264    0.00013011500
       10.943172       0.99946190    0.00012482900
       10.952472       0.99946291    0.00013334800
       10.962082       0.99946375    0.00012545100
       10.971847       0.99946252    0.00013037300
       10.981767       0.99946142    0.00012476900
       10.991377       0.99945924    0.00012906200
       11.001142       0.99946131    0.00012853200
       11.010907       0.99945773    0.00012286200
       11.020827       0.99945471    0.00012866700
       11.030127       0.99945225    0.00012632900
       11.040357       0.99945187    0.00013414500
       11.050277       0.99945624    0.00013340200
       11.060042       0.99945541    0.00012877700
       11.069807       0.99945461    0.00013145400
       11.079727       0.99945598    0.00012881500
       11.089647       0.99945242    0.00012377500
       11.099257       0.99944787    0.00012631900
       11.109487       0.99944752    0.00012788100
       11.119562       0.99944302    0.00012351000
       11.129327       0.99943943    0.00013031600
       11.139092       0.99943993    0.00013172600
       11.149942       0.99944052    0.00013340500
       11.159397       0.99943900    0.00013079100
       11.169472       0.99943622    0.00013278900
       11.179857       0.99943586    0.00013636300
       11.189777       0.99943686    0.00013685700
       11.200007       0.99943740    0.00013622200
       11.209772       0.99943103    0.00013222200
       11.220002       0.99943267    0.00014668400
       11.229922       0.99943665    0.00013789000
       11.240927       0.99943708    0.00014167000
       11.250537       0.99943298    0.00013089600
       11.260922       0.99943124    0.00014291500
       11.271152       0.99943229    0.00013556600
       11.281227       0.99942988    0.00014001100
       11.291612       0.99943002    0.00013849000
       11.302152       0.99942904    0.00013826400
       11.312227       0.99942474    0.00013534800
       11.322612       0.99942239    0.00014253900
       11.332997       0.99942621    0.00014525100
       11.343072       0.99942954    0.00014125900
       11.353767       0.99942374    0.00013266300
       11.364463       0.99941945    0.00014141200
       11.374383       0.99941823    0.00013862800
       11.384768       0.99942022    0.00014651000
       11.395308       0.99941846    0.00013460700
       11.405848       0.99941185    0.00014212800
       11.416388       0.99941439    0.00014720700
       11.427238       0.99941638    0.00014343700
       11.437468       0.99941172    0.00014069900
       11.447698       0.99941031    0.00014708600
       11.458703       0.99941381    0.00014616700
       11.469088       0.99941002    0.00013924300
       11.479473       0.99940593    0.00014472900
       11.490478       0.99940492    0.00014334100
       11.501173       0.99940125    0.00014434600
       11.511558       0.99939902    0.00014962900
       11.522718       0.99940049    0.00015284200
       11.533413       0.99940527    0.00015481900
       11.543798       0.99940159    0.00014378800
       11.554648       0.99939646    0.00015391000
       11.565653       0.99940499    0.00015912200
       11.576813       0.99940030    0.00013973300
       11.587043       0.99939331    0.00015422500
       11.597583       0.99939410    0.00015080600
       11.608743       0.99939524    0.00015692900
       11.619438       0.99939467    0.00014911700
       11.630753       0.99938988    0.00015224600
       11.641293       0.99938568    0.00015363400
       11.652143       0.99939125    0.00016580700
       11.663458       0.99939245    0.00015047200
       11.674463       0.99938715    0.00015890000
       11.685623       0.99938849    0.00015811200
       11.696318       0.99938822    0.00015863900
       11.707478       0.99938733    0.00015743900
       11.718483       0.99938632    0.00015790300
       11.729643       0.99938463    0.00015592000
       11.740958       0.99938315    0.00016033500
       11.751963       0.99938301    0.00015903200
       11.762813       0.99938549    0.00016281400
       11.773973       0.99937993    0.00014974700
       11.785753       0.99937650    0.00016463800
       11.796603       0.99937548    0.00015669500
       11.807608       0.99937920    0.00017183300
       11.818923       0.99938382    0.00015515400
       11.830393       0.99937145    0.00015096100
       11.841553       0.99936945    0.00016597500
       11.852868       0.99937082    0.00015812800
       11.864648       0.99936816    0.00016305000
       11.875808       0.99936605    0.00016022600
       11.886968       0.99936611    0.00016740600
       11.897973       0.99936434    0.00016038700
       11.910063       0.99936457    0.00016933600
       11.921688       0.99935983    0.00015671600
       11.933003       0.99935709    0.00017293700
       11.944318       0.99935592    0.00016424800
       11.955633       0.99935793    0.00018093900
       11.967568       0.99936271    0.00016995000
       11.978883       0.99936020    0.00017248300
       11.990508       0.99936035    0.00016984500
       12.002133       0.99935800    0.00016735000
       12.013913       0.99934956    0.00016271500
       12.025384       0.99934559    0.00017582400
       12.036854       0.99935063    0.00017839700
       12.049099       0.99935092    0.00017359300
       12.060879       0.99934675    0.00017440400
       12.072349       0.99934712    0.00018006500
       12.083664       0.99935167    0.00018058900
       12.095754       0.99935127    0.00017351500
       12.107999       0.99934457    0.00016973000
       12.119469       0.99933787    0.00017244500
       12.131404       0.99933492    0.00017996600
       12.143029       0.99934189    0.00018929400
       12.155119       0.99934185    0.00017603700
       12.167364       0.99934355    0.00018808600
       12.178834       0.99934165    0.00016952100
       12.190924       0.99933280    0.00017884600
       12.202859       0.99933085    0.00018093800
       12.215104       0.99933413    0.00018939100
       12.227194       0.99933659    0.00018156200
       12.239129       0.99933302    0.00018119400
       12.251374       0.99932782    0.00017956200
       12.263464       0.99932634    0.00018780800
       12.275089       0.99932486    0.00018428000
       12.287644       0.99932641    0.00019497800
       12.299889       0.99933607    0.00019314200
       12.311824       0.99933309    0.00017691200
       12.324534       0.99932364    0.00018021800
       12.336314       0.99932059    0.00018323400
       12.349024       0.99931864    0.00018492600
       12.361114       0.99931953    0.00018908900
       12.373669       0.99931710    0.00018388800
       12.385914       0.99931526    0.00019201200
       12.398004       0.99931906    0.00019129200
       12.410714       0.99931673    0.00018485600
       12.422959       0.99931452    0.00018949200
       12.435514       0.99931134    0.00018279100
       12.447914       0.99930505    0.00018821900
       12.460159       0.99930598    0.00019376000
       12.472869       0.99930705    0.00019125900
       12.485734       0.99930130    0.00018840600
       12.498134       0.99930186    0.00020024800
       12.510999       0.99930347    0.00019214800
       12.523554       0.99930049    0.00019608200
       12.535799       0.99930326    0.00019669600
       12.548819       0.99930213    0.00019079500
       12.561219       0.99929276    0.00018681500
       12.573929       0.99928635    0.00019637100
       12.587259       0.99928654    0.00020242700
       12.599969       0.99928997    0.00020819500
       12.612369       0.99929665    0.00020874800
       12.625234       0.99929658    0.00019833200
       12.638099       0.99928963    0.00019816300
       12.651119       0.99928675    0.00020169200
       12.664295       0.99928703    0.00020426600
       12.677160       0.99928694    0.00020211500
       12.689870       0.99928438    0.00020078700
       12.702580       0.99927923    0.00019952000
       12.715910       0.99927741    0.00020664100
       12.729085       0.99927549    0.00020271500
       12.742570       0.99927131    0.00020855700
       12.755590       0.99927314    0.00021433800
       12.768145       0.99927767    0.00021442100
       12.781630       0.99927442    0.00020552300
       12.794805       0.99927103    0.00021248300
       12.807980       0.99926522    0.00020525600
       12.821000       0.99926074    0.00022003700
       12.834485       0.99926835    0.00022612000
       12.847970       0.99927554    0.00022072800
       12.861300       0.99927184    0.00021085500
       12.874630       0.99926406    0.00021298300
       12.887650       0.99926587    0.00022104300
       12.901755       0.99926307    0.00021050900
       12.914775       0.99926233    0.00022563200
       12.928260       0.99926719    0.00021626600
       12.941435       0.99926213    0.00021189000
       12.955230       0.99925770    0.00021345600
       12.969025       0.99925332    0.00021138000
       12.982665       0.99924371    0.00021194800
       12.995995       0.99924321    0.00022818600
       13.009635       0.99924513    0.00022472100
       13.023275       0.99925009    0.00023629200
       13.037070       0.99925599    0.00022406100
       13.050865       0.99924240    0.00021396300
       13.064505       0.99923779    0.00023646600
       13.078145       0.99924739    0.00023680700
       13.092250       0.99925493    0.00023583100
       13.105890       0.99925418    0.00022034800
       13.119840       0.99924875    0.00022028900
       13.133945       0.99923993    0.00021148400
       13.147740       0.99923251    0.00022167600
       13.161535       0.99923039    0.00022058200
       13.176105       0.99922463    0.00022446700
       13.189590       0.99922823    0.00023610400
       13.203540       0.99923302    0.00022779500
       13.218110       0.99922148    0.00021776800
       13.231750       0.99921997    0.00023943800
       13.246010       0.99922002    0.00022369700
       13.259960       0.99920917    0.00023415800
       13.274530       0.99920903    0.00024596900
       13.302585       0.99922197    0.00025876300
       13.317311       0.99924327    0.00023850500
       13.331726       0.99922126    0.00019852400
       13.345676       0.99920199    0.00023328200
       13.360091       0.99920536    0.00023234200
       13.374506       0.99920331    0.00023830300
       13.389076       0.99920357    0.00024125100
       13.403801       0.99920565    0.00024428100
       13.417751       0.99920470    0.00023910900
       13.432476       0.99920072    0.00024162100
       13.447511       0.99920086    0.00024480100
       13.461771       0.99919828    0.00024110000
       13.476186       0.99919733    0.00024683900
       13.490756       0.99919520    0.00024148500
       13.505636       0.99918941    0.00024544600
       13.520981       0.99919203    0.00025282000
       13.534931       0.99919419    0.00024701600
       13.550121       0.99918779    0.00024184500
       13.564691       0.99918343    0.00024914300
       13.579726       0.99918007    0.00024638700
       13.594916       0.99917713    0.00025393000
       13.609486       0.99917835    0.00025574600
       13.624056       0.99917649    0.00025506000
       13.639711       0.99917651    0.00025974200
       13.654126       0.99917795    0.00025742900
       13.669006       0.99917519    0.00025461000
       13.684506       0.99916869    0.00025369100
       13.699696       0.99916600    0.00026235800
       13.714886       0.99916966    0.00026497800
       13.729921       0.99916793    0.00025810400
       13.744801       0.99916310    0.00026175500
       13.760611       0.99916076    0.00026432400
       13.775646       0.99916260    0.00026878800
       13.790836       0.99916076    0.00026288800
       13.806336       0.99915967    0.00027005000
       13.821836       0.99915788    0.00026219400
       13.837181       0.99915343    0.00026800900
       13.852526       0.99915420    0.00026835100
       13.868181       0.99914812    0.00026293300
       13.883836       0.99914629    0.00027442100
       13.899491       0.99914467    0.00026732600
       13.914681       0.99913933    0.00027492200
       13.930181       0.99914145    0.00027948200
       13.946456       0.99914101    0.00027735300
       13.961647       0.99914359    0.00028388200
       13.977457       0.99914174    0.00027271800
       13.993422       0.99913817    0.00028068100
       14.009697       0.99913417    0.00027196800
       14.025197       0.99912826    0.00028176800
       14.040697       0.99912930    0.00028418500
       14.056972       0.99912900    0.00028469400
       14.072937       0.99912795    0.00028500100
       14.088902       0.99912317    0.00028440800
       14.104867       0.99912659    0.00029610400
       14.120832       0.99912905    0.00028702700
       14.137262       0.99912717    0.00029146600
       14.153072       0.99912670    0.00028496200
       14.169037       0.99912106    0.00028503100
       14.185622       0.99911939    0.00028818000
       14.201897       0.99911595    0.00028432900
       14.218482       0.99911277    0.00029002000
       14.233982       0.99910958    0.00028588300
       14.250877       0.99910784    0.00029263700
       14.267462       0.99910441    0.00028737800
       14.283737       0.99909971    0.00029370700
       14.300167       0.99909706    0.00029475900
       14.316907       0.99909653    0.00030084700
       14.333492       0.99909786    0.00030006000
       14.349302       0.99909532    0.00029934700
       14.366197       0.99909127    0.00029997800
       14.382937       0.99909401    0.00030800900
       14.399677       0.99909100    0.00029510300
       14.416417       0.99908226    0.00030358500
       14.433157       0.99908558    0.00031223800
       14.450052       0.99908591    0.00030383700
       14.466947       0.99908409    0.00030901100
       14.483687       0.99908104    0.00030243100
       14.500892       0.99907472    0.00030691200
       14.517942       0.99907403    0.00030988200
       14.534682       0.99906628    0.00030468700
       14.551887       0.99906874    0.00032413900
       14.568782       0.99906557    0.00030445600
       14.585987       0.99905868    0.00032485400
       14.603037       0.99907025    0.00032715300
       14.620398       0.99906586    0.00031021400
       14.637913       0.99905648    0.00032004100
       14.654963       0.99905625    0.00032386000
       14.672323       0.99905426    0.00032443500
       14.689838       0.99905849    0.00033341300
       14.707043       0.99905791    0.00032150800
       14.724868       0.99905581    0.00032845900
       14.742073       0.99905545    0.00032075600
       14.760053       0.99904747    0.00031793100
       14.777413       0.99903930    0.00032148000
       14.795083       0.99903671    0.00032727900
       14.812598       0.99902934    0.00032305500
       14.830268       0.99902531    0.00034136100
       14.847938       0.99903395    0.00034844300
       14.866228       0.99903762    0.00034177500
       14.883588       0.99904308    0.00034580900
       14.901568       0.99903677    0.00032405200
       14.919858       0.99902685    0.00033877900
       14.937683       0.99902632    0.00033406100
       14.955818       0.99901801    0.00033448800
       14.973178       0.99901231    0.00034261300
       14.991778       0.99901773    0.00035353700
       15.010223       0.99901968    0.00034248700
       15.028358       0.99901454    0.00034481100
       15.046338       0.99901677    0.00034770100
       15.064938       0.99900568    0.00032943500
       15.082763       0.99899122    0.00034914500
       15.101208       0.99899655    0.00036091200
       15.119963       0.99900244    0.00035934600
       15.138253       0.99900045    0.00035501700
       15.156388       0.99900307    0.00036112700
       15.175763       0.99899383    0.00034153200
       15.193898       0.99898798    0.00036425600
       15.212808       0.99898381    0.00034741600
       15.230943       0.99897635    0.00036667100
       15.249698       0.99897757    0.00036591700
       15.268454       0.99898049    0.00037539600
       15.287519       0.99897642    0.00036336100
       15.306739       0.99897876    0.00038306500
       15.325029       0.99897581    0.00036072700
       15.344094       0.99897095    0.00038293400
       15.363469       0.99897160    0.00037122100
       15.382379       0.99897377    0.00038788500
       15.401134       0.99897410    0.00036798000
       15.420974       0.99896707    0.00037740700
       15.439729       0.99896549    0.00037093700
       15.458794       0.99895871    0.00037103700
       15.478634       0.99894851    0.00036949500
       15.497854       0.99894420    0.00038425600
       15.517229       0.99894166    0.00038099200
       15.536604       0.99894828    0.00040260200
       15.556134       0.99894659    0.00037596900
       15.575664       0.99894292    0.00040036100
       15.595039       0.99894307    0.00037968800
       15.615034       0.99893149    0.00038971100
       15.634409       0.99893000    0.00039259200
       15.654249       0.99892160    0.00039259900
       15.674244       0.99892566    0.00041310400
       15.694084       0.99893410    0.00039911200
       15.713304       0.99891189    0.00038104800
       15.733919       0.99890233    0.00041964900
       15.753759       0.99891429    0.00041925500
       15.773599       0.99891475    0.00041871900
       15.793749       0.99891596    0.00042460100
       15.814054       0.99892262    0.00042503800
       15.833894       0.99892342    0.00041371600
       15.854664       0.99891277    0.00040561200
       15.874814       0.99890077    0.00041219900
       15.894809       0.99889532    0.00041996100
       15.915580       0.99889707    0.00042986700
       15.935575       0.99889946    0.00042933000
       15.956655       0.99890276    0.00043161700
       15.976650       0.99889444    0.00041779900
       15.997730       0.99889409    0.00043884000
       16.018035       0.99889567    0.00041930700
       16.039270       0.99887950    0.00041933900
       16.060040       0.99887436    0.00043576000
       16.080655       0.99887683    0.00043429300
       16.101890       0.99886583    0.00043081900
       16.122350       0.99887026    0.00045697800
       16.143585       0.99887484    0.00043623200
       16.164665       0.99886553    0.00044145600
       16.185590       0.99885710    0.00043803100
       16.206670       0.99885426    0.00045548400
       16.228370       0.99885014    0.00044825100
       16.249140       0.99885040    0.00047164300
       16.270685       0.99886445    0.00046656000
       16.291920       0.99885375    0.00044361900
       16.313465       0.99883664    0.00045892300
       16.334700       0.99883704    0.00047296300
       16.356400       0.99884347    0.00047663700
       16.377790       0.99883666    0.00046561600
       16.399645       0.99883138    0.00048478600
       16.421500       0.99883590    0.00048680500
       16.442735       0.99884085    0.00049016400
       16.465365       0.99883540    0.00047795600
       16.486600       0.99883215    0.00049657900
       16.508765       0.99883980    0.00049250400
       16.531395       0.99883395    0.00048414400
       16.552940       0.99883347    0.00049654500
       16.574951       0.99883180    0.00048325100
       16.597271       0.99882204    0.00048941000
       16.620056       0.99882214    0.00049618100
       16.641601       0.99881958    0.00049336300
       16.664696       0.99882123    0.00050341700
       16.686551       0.99882033    0.00049010700
       16.709336       0.99880892    0.00049111700
       16.732276       0.99880684    0.00050245000
       16.753976       0.99880209    0.00049397600
       16.777071       0.99879719    0.00050697700
       16.799701       0.99879516    0.00050300000
       16.822641       0.99879513    0.00051717900
       16.845271       0.99879071    0.00050609700
       16.868366       0.99879284    0.00052844600
       16.891306       0.99879549    0.00050785800
       16.914401       0.99878247    0.00051222300
       16.937496       0.99878048    0.00052116000
       16.960901       0.99877326    0.00051507700
       16.983686       0.99877543    0.00053766800
       17.007246       0.99877334    0.00051714600
       17.030341       0.99876418    0.00053665900
       17.054366       0.99877026    0.00054190300
       17.077306       0.99877442    0.00053931500
       17.100866       0.99876855    0.00052952800
       17.124271       0.99875453    0.00053352100
       17.148296       0.99876063    0.00055753300
       17.171701       0.99876512    0.00053331000
       17.196037       0.99875197    0.00053637000
       17.219287       0.99874295    0.00054100200
       17.243622       0.99874542    0.00055484000
       17.267492       0.99874111    0.00053884400
       17.291517       0.99872857    0.00055241200
       17.316162       0.99873392    0.00056684700
       17.340032       0.99873857    0.00055870400
       17.363902       0.99873060    0.00055506100
       17.388857       0.99872707    0.00056440900
       17.413037       0.99872132    0.00055757600
       17.437682       0.99872099    0.00057790400
       17.462792       0.99872401    0.00056486800
       17.486352       0.99871091    0.00056415700
       17.511927       0.99870966    0.00058149400
       17.536572       0.99870882    0.00057118000
       17.561372       0.99869658    0.00057729700
       17.586017       0.99870154    0.00059850400
       17.611282       0.99870264    0.00058330900
       17.635927       0.99870341    0.00059953400
       17.661192       0.99870007    0.00057801900
       17.686612       0.99869146    0.00059280100
       17.711412       0.99867931    0.00058005500
       17.736987       0.99867685    0.00061356200
       17.762252       0.99868474    0.00060175900
       17.787827       0.99867951    0.00060390500
       17.813557       0.99867101    0.00060199300
       17.838667       0.99867019    0.00061943600
       17.864863       0.99867178    0.00061077100
       17.890593       0.99865954    0.00061066900
       17.916013       0.99865574    0.00062821700
       17.942363       0.99866272    0.00063407200
       17.968403       0.99865875    0.00062518900
       17.994443       0.99865993    0.00064439200
       18.020638       0.99866441    0.00063138000
       18.046833       0.99866646    0.00064078800
       18.073028       0.99865572    0.00061486800
       18.099378       0.99864655    0.00064215300
       18.126348       0.99864780    0.00063088500
       18.152388       0.99863931    0.00063803100
       18.179203       0.99864030    0.00064375000
       18.206018       0.99862735    0.00063029500
       18.232368       0.99862108    0.00066140000
       18.259493       0.99863552    0.00066425000
       18.286153       0.99863998    0.00065197500
       18.313898       0.99863099    0.00064073100
       18.340093       0.99861011    0.00063757300
       18.368148       0.99860037    0.00066193600
       18.394498       0.99860477    0.00067115500
       18.422863       0.99861415    0.00067796400
       18.449213       0.99861276    0.00066002700
       18.477578       0.99860402    0.00066708800
       18.505014       0.99859912    0.00066335600
       18.532139       0.99859054    0.00066688900
       18.560349       0.99858367    0.00066980500
       18.588094       0.99857814    0.00067591400
       18.616149       0.99856945    0.00067907500
       18.643739       0.99856753    0.00069868300
       18.672259       0.99858254    0.00070793600
       18.700004       0.99858004    0.00068092500
       18.728679       0.99856615    0.00069032700
       18.756424       0.99855476    0.00068836300
       18.785409       0.99855450    0.00071105700
       18.813929       0.99854794    0.00069293700
       18.842139       0.99853780    0.00071995400
       18.870814       0.99854687    0.00072701500
       18.899644       0.99855542    0.00072562200
       18.928939       0.99854235    0.00070286300
       18.957304       0.99852983    0.00072961900
       18.987064       0.99853507    0.00073123500
       19.015584       0.99853770    0.00073215900
       19.045034       0.99852206    0.00071495700
       19.073864       0.99851436    0.00074787500
       19.103934       0.99851424    0.00073758500
       19.132609       0.99851333    0.00075996900
       19.162680       0.99852583    0.00075929200
       19.192285       0.99851791    0.00073828100
       19.221890       0.99850129    0.00075086500
       19.251960       0.99850776    0.00076939300
       19.282185       0.99850752    0.00074985500
       19.311635       0.99849451    0.00075768800
       19.342170       0.99848562    0.00076249400
       19.372085       0.99849129    0.00078301600
       19.402775       0.99848930    0.00076291400
       19.432535       0.99848087    0.00077972000
       19.463690       0.99848080    0.00077631300
       19.494225       0.99847203    0.00077683300
       19.524760       0.99846748    0.00078674100
       19.555450       0.99846139    0.00078615100
       19.586450       0.99846239    0.00080323800
       19.617450       0.99846577    0.00079394100
       19.648605       0.99845516    0.00079026900
       19.679605       0.99844705    0.00079936000
       19.711070       0.99844091    0.00080441500
       19.742380       0.99844821    0.00082231300
       19.773845       0.99844392    0.00079603700
       19.805001       0.99843228    0.00081581100
       19.836776       0.99842435    0.00080652900
       19.869481       0.99842360    0.00083159700
       19.900636       0.99841720    0.00080829600
       19.932566       0.99840501    0.00083237500
       19.964651       0.99840421    0.00083086100
       19.996891       0.99838640    0.00083167000
       20.029286       0.99838658    0.00087029100
       20.061991       0.99840167    0.00086723500
       20.094076       0.99840716    0.00086709900
       20.127401       0.99840434    0.00085441200
       20.159641       0.99839140    0.00085405700
       20.192656       0.99838449    0.00086259800
       20.225206       0.99837734    0.00086559600
       20.258686       0.99838067    0.00088230600
       20.291546       0.99837719    0.00086352800
       20.324871       0.99836249    0.00087494800
       20.358661       0.99835714    0.00088448200
       20.391521       0.99836414    0.00089825400
       20.425776       0.99835783    0.00087514300
       20.458792       0.99834168    0.00089173400
       20.493047       0.99834049    0.00089827400
       20.526682       0.99832888    0.00089309700
       20.561247       0.99831656    0.00091223200
       20.594882       0.99832061    0.00092903900
       20.629447       0.99832011    0.00092366200
       20.663702       0.99830966    0.00093409300
       20.698112       0.99831945    0.00095861400
       20.732832       0.99833119    0.00094495500
       20.766932       0.99832324    0.00093442900
       20.802737       0.99830510    0.00093268800
       20.837147       0.99829595    0.00095359500
       20.872487       0.99829909    0.00096045100
       20.907362       0.99829632    0.00095883500
       20.942857       0.99829109    0.00096539000
       20.978662       0.99828933    0.00096733300
       21.013692       0.99826772    0.00095825000
       21.049497       0.99827133     0.0010052810
       21.085457       0.99827084    0.00097122300
       21.121108       0.99826657     0.0010124730
       21.157378       0.99827113    0.00099038400
       21.193648       0.99826411     0.0010073340
       21.229453       0.99826323     0.0010053690
       21.266498       0.99826457     0.0010165710
       21.302923       0.99825620     0.0010009500
       21.339193       0.99825785     0.0010300440
       21.376238       0.99825702    0.00099949000
       21.413128       0.99823654     0.0010091200
       21.450018       0.99822958     0.0010183970
       21.487528       0.99821347     0.0010153370
       21.524573       0.99821020     0.0010518750
       21.561928       0.99822514     0.0010481380
       21.599903       0.99821258     0.0010279050
       21.636948       0.99817831     0.0010380480
       21.675233       0.99819412     0.0011046050
       21.713053       0.99822157     0.0010686640
       21.751029       0.99820565     0.0010545840
       21.789779       0.99818669     0.0010608250
       21.827909       0.99817151     0.0010717280
       21.866194       0.99817310     0.0010992110
       21.905099       0.99818044     0.0010945020
       21.943384       0.99817433     0.0010929580
       21.983064       0.99816476     0.0010977240
       22.021194       0.99816002     0.0011119570
       22.060874       0.99817197     0.0011245910
       22.100864       0.99816361     0.0010929140
       22.143334       0.99814663     0.0011180200
       22.219284       0.99815746     0.0011277880
       22.258809       0.99811870     0.0010826450
       22.298954       0.99810691     0.0011438170
       22.339254       0.99809650     0.0011103580
       22.379244       0.99807596     0.0011656340
       22.420010       0.99810472     0.0011915300
       22.460465       0.99811824     0.0011601870
       22.501075       0.99809838     0.0011477990
       22.542305       0.99805820     0.0011459420
       22.583070       0.99805478     0.0012184880
       22.624455       0.99808010     0.0012101010
       22.665840       0.99808449     0.0012116000
       22.707380       0.99807513     0.0012017080
       22.749075       0.99807882     0.0012275370
       22.790770       0.99808832     0.0012050250
       22.832465       0.99804977     0.0011744110
       22.875090       0.99803541     0.0012393080
       22.917250       0.99803642     0.0012169950
       22.959565       0.99804807     0.0012668810
       23.002190       0.99805080     0.0012094700
       23.044816       0.99803269     0.0012331100
       23.087906       0.99800646     0.0011957020
       23.131306       0.99796718     0.0012355940
       23.174086       0.99793917     0.0012533900
       23.217486       0.99796430     0.0013413280
       23.261351       0.99796904     0.0012725180
       23.304751       0.99795288     0.0013501670
       23.348926       0.99798032     0.0013479170
       23.392171       0.99800053     0.0013592920
       23.437431       0.99801244     0.0013277520
       23.481606       0.99798020     0.0012986410
       23.525781       0.99796257     0.0013377820
       23.570731       0.99795534     0.0013253110
       23.615681       0.99794147     0.0013487620
       23.660631       0.99792853     0.0013490680
       23.706047       0.99792912     0.0013867870
       23.751152       0.99792792     0.0013694130
       23.797032       0.99791654     0.0013939170
       23.842447       0.99791514     0.0013990130
       23.888327       0.99790646     0.0014083500
       23.934672       0.99790382     0.0014269550
       23.981017       0.99790478     0.0014364120
       24.027517       0.99790973     0.0014474600
       24.074017       0.99790011     0.0014358260
       24.120672       0.99788777     0.0014618570
       24.167637       0.99790147     0.0014798070
       24.214757       0.99789648     0.0014599430
       24.262342       0.99788773     0.0014859060
       24.310082       0.99789502     0.0014855070
       24.357668       0.99788214     0.0014818160
       24.405873       0.99787573     0.0015083800
       24.453613       0.99787895     0.0015110320
       24.502283       0.99787213     0.0015124490
       24.550333       0.99786417     0.0015255740
       24.599623       0.99786316     0.0015374460
       24.648138       0.99787173     0.0015490090
       24.697273       0.99786188     0.0015242810
       24.747028       0.99784411     0.0015491250
       24.795853       0.99783933     0.0015511410
       24.845763       0.99782753     0.0015647570
       24.895828       0.99783022     0.0015863240
       24.946048       0.99782974     0.0015771690
       24.996113       0.99781698     0.0015847100
       25.046489       0.99780672     0.0015915900
       25.097019       0.99778788     0.0015970280
       25.148014       0.99778359     0.0016354060
       25.199164       0.99778668     0.0016361460
       25.250779       0.99778958     0.0016615930
       25.302239       0.99779669     0.0016545760
       25.353854       0.99778401     0.0016495940
       25.405934       0.99777028     0.0016662560
       25.458169       0.99776214     0.0016764620
       25.510094       0.99775870     0.0016958330
       25.563414       0.99776172     0.0017046720
       25.615959       0.99775310     0.0017040350
       25.668970       0.99775017     0.0017274560
       25.722600       0.99774603     0.0017207530
       25.775920       0.99773532     0.0017392900
       25.829550       0.99772669     0.0017442870
       25.883490       0.99772321     0.0017707690
       25.937895       0.99772339     0.0017732140
       25.991680       0.99772198     0.0017877850
       26.047015       0.99771259     0.0017877350
       26.101110       0.99771744     0.0018210490
       26.156445       0.99771108     0.0017957550
       26.211315       0.99769930     0.0018343200
       26.266960       0.99770585     0.0018371110
       26.322916       0.99770549     0.0018436470
       26.379026       0.99769821     0.0018427400
       26.435136       0.99768550     0.0018537910
       26.492021       0.99767700     0.0018687880
       26.548441       0.99767710     0.0018866280
       26.605636       0.99767294     0.0018854970
       26.662676       0.99766760     0.0019058030
       26.720026       0.99766917     0.0019095640
       26.777996       0.99766047     0.0019108790
       26.835966       0.99764899     0.0019207880
       26.894246       0.99763076     0.0019261840
       26.952372       0.99762201     0.0019627300
       27.010962       0.99762702     0.0019761670
       27.070482       0.99763950     0.0019947130
       27.129537       0.99763662     0.0019706680
       27.189057       0.99760937     0.0019803040
       27.248577       0.99759136     0.0020024920
       27.308717       0.99758829     0.0020329830
       27.369012       0.99758832     0.0020435160
       27.429462       0.99758940     0.0020631720
       27.490377       0.99758682     0.0020677810
       27.551292       0.99757762     0.0020842330
       27.612673       0.99758068     0.0021085730
       27.674363       0.99758143     0.0021085810
       27.736053       0.99757815     0.0021281250
       27.798673       0.99757647     0.0021310880
       27.860673       0.99756781     0.0021462480
       27.923293       0.99756766     0.0021644970
       27.986843       0.99756693     0.0021710430
       28.049773       0.99756151     0.0021830240
       28.113633       0.99755886     0.0021958440
       28.178113       0.99755469     0.0022052520
       28.241354       0.99755283     0.0022229510
       28.305834       0.99754948     0.0022274790
       28.370934       0.99754392     0.0022437110
       28.434794       0.99753895     0.0022520100
       28.502064       0.99753668     0.0022707910
       28.566854       0.99753151     0.0022775670
       28.632574       0.99752849     0.0022971020
       28.700154       0.99752453     0.0023028530
       28.765254       0.99751920     0.0023227080
       28.832214       0.99751737     0.0023341920
       28.899485       0.99751371     0.0023476360
       28.967995       0.99751318     0.0023647530
       29.035575       0.99751130     0.0023735210
       29.103775       0.99750894     0.0023891470
       29.171975       0.99750644     0.0023962150
       29.240485       0.99750251     0.0024119800
       29.309615       0.99749977     0.0024238860
       29.378745       0.99749484     0.0024350940
       29.448805       0.99749111     0.0024522520
       29.518555       0.99749134     0.0024638880
       29.590166       0.99748715     0.0024744670
       29.659916       0.99748219     0.0024885390
       29.731526       0.99747833     0.0025023130
       29.802516       0.99747551     0.0025172610
       29.874126       0.99747430     0.0025298840
       29.946666       0.99746864     0.0025410300
       30.018586       0.99746405     0.0025576220
       30.092366       0.99745600     0.0025672540
       30.164906       0.99745347     0.0025954490
       30.238687       0.99745333     0.0026035050
       30.314017       0.99744738     0.0026234370
       30.387797       0.99744825     0.0026463670
       30.461267       0.99745093     0.0026608180
       30.537217       0.99745163     0.0026756490
       30.612547       0.99745672     0.0026988670
       30.688187       0.99746381     0.0027081730
       30.763827       0.99747510     0.0027253290
       30.840708       0.99748002     0.0027153410
       30.917898       0.99748432     0.0027321290
       30.995708       0.99747693     0.0027062450
       31.072588       0.99745644     0.0027220340
       31.151328       0.99743112     0.0027192530
       31.228828       0.99740703     0.0027656550
       31.308808       0.99741646     0.0028066610
       31.386928       0.99742711     0.0028149310
       31.466909       0.99743141     0.0028333580
       31.546579       0.99743666     0.0028450670
       31.627489       0.99743873     0.0028536710
       31.708709       0.99743905     0.0028631880
       31.788999       0.99743929     0.0028715270
       31.870529       0.99743473     0.0028770870
       31.954229       0.99742881     0.0028895420
       32.036689       0.99742299     0.0029006490
       32.119459       0.99741698     0.0029132780
       32.201920       0.99741466     0.0029309410
       32.286550       0.99740934     0.0029354550
       32.370250       0.99740029     0.0029520090
       32.455500       0.99739758     0.0029698240
       32.541060       0.99739162     0.0029788580
       32.626310       0.99738511     0.0029991710
       32.712180       0.99737966     0.0030104390
       32.798980       0.99737773     0.0030365950
       32.886091       0.99737721     0.0030425100
       32.973821       0.99736963     0.0030603890
       33.061241       0.99736877     0.0030795300
       33.149901       0.99736283     0.0030877390
       33.238871       0.99735781     0.0031127810
       33.328151       0.99735792     0.0031244270
       33.417431       0.99735402     0.0031401410
       33.508572       0.99734872     0.0031560160
       33.599092       0.99734657     0.0031750340
       33.690232       0.99734481     0.0031898570
       33.782302       0.99734022     0.0032029010
       33.874372       0.99733549     0.0032209920
       33.966752       0.99733180     0.0032394480
       34.060372       0.99732979     0.0032543710
       34.154613       0.99732103     0.0032645380
       34.248543       0.99731552     0.0032894670
       34.343403       0.99730841     0.0033049000
       34.439503       0.99730523     0.0033249600
       34.534673       0.99730056     0.0033381160
       34.631703       0.99729372     0.0033615320
       34.728424       0.99729284     0.0033839710
       34.824524       0.99729362     0.0034008220
       34.923724       0.99729093     0.0034149520
       35.022924       0.99728641     0.0034323730
       35.121504       0.99728018     0.0034468430
       35.221014       0.99727011     0.0034686240
       35.321454       0.99726888     0.0034971670
       35.422825       0.99726651     0.0035116130
       35.524815       0.99726538     0.0035393710
       35.626185       0.99725857     0.0035463760
       35.728485       0.99725289     0.0035846600
       35.833265       0.99725555     0.0035995630
       35.935875       0.99725277     0.0036212580
       36.040346       0.99724727     0.0036414200
       36.145746       0.99724041     0.0036647020
       36.251766       0.99724169     0.0036983880
       36.358406       0.99724537     0.0037171720
       36.463806       0.99724168     0.0037380290
       36.572616       0.99724262     0.0037710280
       36.680187       0.99724691     0.0037919280
       36.789307       0.99725011     0.0038169390
       36.899047       0.99725639     0.0038410120
       37.008787       0.99725814     0.0038563790
       37.119767       0.99726238     0.0038861180
       37.231677       0.99726738     0.0038983540
       37.342968       0.99726431     0.0039204420
       37.457048       0.99726983     0.0039492440
       37.569578       0.99727201     0.0039607750
       37.683348       0.99727515     0.0039931410
       37.798978       0.99728249     0.0040031020
       37.913988       0.99728172     0.0040237710
       38.030859       0.99728435     0.0040427510
       38.147419       0.99728209     0.0040541900
       38.265529       0.99727025     0.0040721070
       38.383949       0.99726576     0.0041063660
       38.502369       0.99726652     0.0041292240
       38.622340       0.99725852     0.0041465400
       38.743240       0.99724618     0.0041807450
       38.864450       0.99724330     0.0042210510
       38.986280       0.99724461     0.0042547090
       39.109970       0.99724505     0.0042901750
       39.233040       0.99723939     0.0043212990
       39.358281       0.99723022     0.0043677830
       39.483521       0.99722391     0.0044296720
       39.610311       0.99725005     0.0045233700
       39.737411       0.99730591     0.0045819000
       39.865131       0.99737486     0.0046338600
       39.992852       0.99746177     0.0046567350
       40.121812       0.99754769     0.0046262960
       40.252322       0.99756182     0.0045287970
       40.384382       0.99751682     0.0045097360
       40.516132       0.99747440     0.0045254480
       40.649123       0.99744846     0.0045713520
       40.783043       0.99742598     0.0046108280
       40.917583       0.99740249     0.0046878380
       41.052433       0.99740086     0.0047985330
       41.189763       0.99747888     0.0049652420
       41.326164       0.99763097     0.0050463840
       41.464424       0.99780677     0.0050912070
       41.603924       0.99802184     0.0050674510
       41.743734       0.99822138     0.0049056360
       41.884785       0.99825829     0.0046079440
       42.027385       0.99815511     0.0044540020
       42.169675       0.99804432     0.0043899200
       42.312895       0.99797369     0.0043800450
       42.458905       0.99791376     0.0043408380
       42.604916       0.99785231     0.0043429980
       42.751546       0.99779766     0.0043236280
       42.899416       0.99770110     0.0043069650
       43.048836       0.99762456     0.0044036340
       43.197637       0.99763196     0.0044814510
       43.349847       0.99762702     0.0044705220
       43.501747       0.99760881     0.0045266140
       43.653957       0.99763539     0.0045502950
       43.808337       0.99757410     0.0044651140
       43.963648       0.99748516     0.0045907360
       44.120198       0.99752749     0.0047150330
       44.278608       0.99758104     0.0047057130
       44.436398       0.99759983     0.0047258730
       44.597289       0.99760155     0.0047048950
       44.757559       0.99758663     0.0047263900
       44.919689       0.99757072     0.0047365760
       45.083679       0.99756691     0.0047828960
       45.247670       0.99755989     0.0047787950
       45.413830       0.99754718     0.0048298830
       45.579680       0.99754874     0.0048508060
       45.748010       0.99755048     0.0048899140
       45.916961       0.99755239     0.0049061890
       46.088701       0.99754848     0.0049438290
       46.259821       0.99755782     0.0049821370
       46.433112       0.99757641     0.0050126820
       46.607952       0.99758805     0.0050252100
       46.784032       0.99759217     0.0050518470
       46.961662       0.99760787     0.0050803690
       47.140533       0.99761570     0.0050862200
       47.320643       0.99762062     0.0051180820
       47.501063       0.99762799     0.0051322890
       47.683653       0.99763734     0.0051648880
       47.868414       0.99765094     0.0051775820
       48.053794       0.99765769     0.0051958140
       48.240104       0.99766155     0.0052127650
       48.429205       0.99767205     0.0052420520
       48.618615       0.99767668     0.0052485030
       48.810815       0.99767603     0.0052795800
       49.004255       0.99768474     0.0053131430
       49.198006       0.99770839     0.0053481780
       49.392686       0.99772499     0.0053533090
       49.590776       0.99773811     0.0053862340
       49.790727       0.99776398     0.0054014050
       49.992227       0.99777938     0.0054049270
       50.193727       0.99778282     0.0054144960
       50.398328       0.99779079     0.0054393250
       50.603238       0.99779984     0.0054531840
       50.810628       0.99782255     0.0054842330
       51.019879       0.99782267     0.0054585540
       51.231299       0.99781403     0.0055108930
       51.443649       0.99782823     0.0055296840
       51.658170       0.99784224     0.0055648560
       51.873930       0.99786076     0.0055837820
       52.092170       0.99788042     0.0056138430
       52.311651       0.99790304     0.0056294580
       52.532991       0.99791800     0.0056474880
       52.756811       0.99793664     0.0056725530
       52.982182       0.99795575     0.0056907860
       53.209412       0.99797625     0.0057229250
       53.439122       0.99800849     0.0057507720
       53.671003       0.99804905     0.0057781700
       53.903503       0.99809694     0.0057889520
       54.140343       0.99813499     0.0057811670
       54.376564       0.99816036     0.0057801900
       54.615574       0.99818678     0.0057928080
       54.856755       0.99822824     0.0058037740
       55.100415       0.99828196     0.0057958570
       55.347485       0.99830487     0.0057426320
       55.595796       0.99828342     0.0057239600
       55.846896       0.99829960     0.0057827570
       56.098616       0.99832720     0.0057536990
       56.354367       0.99835777     0.0057956330
       56.611667       0.99838345     0.0057543480
       56.870518       0.99840652     0.0057980290
       57.132778       0.99844767     0.0057741390
       57.397518       0.99847990     0.0057879330
       57.663809       0.99852170     0.0057735380
       57.934439       0.99855055     0.0057578670
       58.206000       0.99858239     0.0057598680
       58.480660       0.99862205     0.0057520160
       58.757800       0.99866067     0.0057425330
       59.037421       0.99873794     0.0057589010
       59.319831       0.99878291     0.0056509710
       59.605032       0.99878144     0.0056528870
       59.893332       0.99884268     0.0056739090
       60.183803       0.99893383     0.0056314530
       60.477683       0.99900501     0.0055594960
       60.774044       0.99906780     0.0054833510
       61.072884       0.99911141     0.0053743400
       61.375445       0.99913010     0.0052776690
       61.680795       0.99916186     0.0051938260
       61.989246       0.99916382     0.0050354930
       62.300486       0.99911171     0.0049206240
       62.615446       0.99905093     0.0048371600
       62.933197       0.99899022     0.0047685570
       63.253738       0.99893871     0.0047230970
       63.578928       0.99888816     0.0046593230
       63.906598       0.99881220     0.0046069150
       64.237679       0.99875631     0.0046139500
       64.571860       0.99871085     0.0045830590
       64.910380       0.99867524     0.0045993070
       65.251380       0.99866528     0.0045886740
       65.597341       0.99863285     0.0045685700
       65.945782       0.99865035     0.0046276900
       66.297942       0.99866179     0.0045593760
       66.654753       0.99870866     0.0046484740
       67.014973       0.99882087     0.0045747660
       67.379224       0.99888644     0.0044935330
       67.745954       0.99895851     0.0044217550
       68.117955       0.99908500     0.0043388630
       68.494606       0.99919979     0.0040977740
       68.877766       0.99920157     0.0038236170
       69.271777       0.99917397     0.0036197990
       69.456537       0.99913791     0.0033383990
       69.650907       0.99907831     0.0031720070
       69.847758       0.99897080     0.0030363120
       70.044608       0.99884973     0.0029341530
       70.243318       0.99874735     0.0028792020
       70.443578       0.99866415     0.0028056240
       70.644459       0.99857244     0.0027277660
       70.845649       0.99847270     0.0026591390
       71.049940       0.99837383     0.0026089200
       71.253610       0.99829118     0.0025681860
       71.458830       0.99819680     0.0024898130
       71.665600       0.99811116     0.0024688900
       71.872991       0.99799401     0.0023629510
       72.081621       0.99788562     0.0024027790
       72.292111       0.99780220     0.0023290390
       72.503222       0.99771230     0.0023432850
       72.716192       0.99762164     0.0022725860
       72.930092       0.99750352     0.0022802400
       73.144923       0.99743626     0.0023060440
       73.361613       0.99736970     0.0022673740
       73.579543       0.99730821     0.0022853640
       73.798404       0.99725044     0.0022356640
       74.018194       0.99716091     0.0022185660
       74.240464       0.99711355     0.0022524520
       74.462735       0.99708999     0.0022069150
       74.685935       0.99703779     0.0021538780
       74.911925       0.99697283     0.0021023230
       75.138536       0.99688142     0.0020409110
       75.367626       0.99681422     0.0020527960
       75.596717       0.99675551     0.0019694580
       75.828597       0.99666203     0.0019297350
       76.061097       0.99656069     0.0018863570
       76.294838       0.99648835     0.0018919740
       76.530128       0.99641878     0.0018174240
       76.766968       0.99632128     0.0017743480
       77.005359       0.99620376     0.0017081720
       77.245609       0.99608523     0.0017029840
       77.487099       0.99595210     0.0016457620
       77.729830       0.99581426     0.0016925020
       77.974110       0.99574602     0.0017265040
       78.220250       0.99561804     0.0016530750
       78.467941       0.99554055     0.0018033170
       78.716561       0.99549881     0.0017183760
       78.968592       0.99545679     0.0017912740
       79.220932       0.99536340     0.0016261150
       79.474513       0.99524437     0.0017437120
       79.729953       0.99522226     0.0017205140
       79.987563       0.99523605     0.0017247080
       80.246103       0.99514640     0.0014714820
       80.507124       0.99492087     0.0014505330
       80.769075       0.99477531     0.0014970110
       81.033505       0.99466960     0.0014980480
       81.298865       0.99456967     0.0015058990
       81.566086       0.99443246     0.0014625990
       81.835476       0.99431618     0.0015442460
       82.107036       0.99421459     0.0015170980
       82.378907       0.99414549     0.0016138680
       82.653567       0.99407910     0.0015269220
       82.930088       0.99394998     0.0015443930
       83.208468       0.99386189     0.0015730650
       83.488399       0.99379103     0.0015645170
       83.770499       0.99368144     0.0015197680
       84.055080       0.99356695     0.0015457940
       84.340590       0.99344780     0.0015202490
       84.628890       0.99333433     0.0015713260
       84.917811       0.99324427     0.0015761000
       85.208901       0.99316133     0.0016056440
       85.502162       0.99309908     0.0015913780
       85.798522       0.99297889     0.0015251760
       86.095812       0.99285925     0.0015584670
       86.097066       0.99257309     0.0014804050
       86.396204       0.99257383     0.0015385740
       86.698130       0.99256316     0.0016464080
       87.002842       0.99250464     0.0016361760
       87.310342       0.99239335     0.0016316250
       87.615983       0.99228894     0.0016719190
       87.930915       0.99220800     0.0016878110
       88.241201       0.99211136     0.0016783600
       88.555203       0.99200385     0.0016924600
       88.875709       0.99190824     0.0017044840
       89.191569       0.99179493     0.0016918740
       89.516720       0.99167911     0.0017214650
       89.840941       0.99158101     0.0017431340
       90.166092       0.99148821     0.0017513460
       90.495887       0.99138029     0.0017409580
       90.827541       0.99126863     0.0017589480
       91.161053       0.99115770     0.0017547030
       91.497351       0.99104394     0.0017750890
       91.836436       0.99092805     0.0017709160
       92.176451       0.99080998     0.0017943910
       92.522968       0.99069265     0.0017975680
       92.869486       0.99057470     0.0018256120
       93.216933       0.99046747     0.0018353620
       93.569024       0.99034986     0.0018393990
       93.922974       0.99022345     0.0018531670
       94.282497       0.99011218     0.0018847960
       94.640163       0.98999330     0.0018757900
       95.001544       0.98986930     0.0019044960
       95.369429       0.98975330     0.0019109640
       95.735455       0.98962980     0.0019245320
       96.108914       0.98951880     0.0019419520
       96.481444       0.98938820     0.0019198900
       96.857689       0.98923750     0.0019383040
       97.238580       0.98909850     0.0019626710
       97.621328       0.98897380     0.0019902310
       98.005935       0.98883850     0.0019992510
       98.396116       0.98871100     0.0020417650
       98.788154       0.98859160     0.0020442600
       99.181122       0.98845260     0.0020500930
       99.583379       0.98830220     0.0020626860
       99.981921       0.98815670     0.0020980200
       100.38882       0.98801760     0.0021175650
       100.79666       0.98787230     0.0021457970
       101.20634       0.98774320     0.0021910080
       101.62254       0.98761160     0.0021890880
       102.03780       0.98747510     0.0022309310
       102.46143       0.98734120     0.0022242600
       102.88784       0.98718440     0.0022464380
       103.31425       0.98703760     0.0022740850
       103.74716       0.98689900     0.0022990830
       104.18472       0.98675220     0.0023056840
       104.62135       0.98660200     0.0023350360
       105.06727       0.98645750     0.0023457020
       105.51320       0.98629990     0.0023590840
       105.96562       0.98614690     0.0023855800
       106.41804       0.98599750     0.0023958340
       106.87790       0.98583830     0.0024010290
       107.34147       0.98567750     0.0024164120
       107.80690       0.98549010     0.0024004280
       108.27697       0.98531710     0.0024614160
       108.75355       0.98515750     0.0024554610
       109.23199       0.98497280     0.0024723730
       109.71507       0.98479420     0.0024915560
       110.20279       0.98461000     0.0025135200
       110.69517       0.98442840     0.0025338450
       111.19218       0.98425380     0.0025622970
       111.69106       0.98406180     0.0025544140
       112.19736       0.98386960     0.0025963560
       112.70552       0.98368250     0.0025993910
       113.22391       0.98349670     0.0026311330
       113.73950       0.98329700     0.0026110610
       114.26439       0.98307430     0.0026291390
       114.79392       0.98287210     0.0026590680
       115.33181       0.98265350     0.0026370570
       115.89293       0.98240000     0.0026470360
       116.08709       0.98210870     0.0026633980
       116.52000       0.98200250     0.0027091100
       116.96314       0.98183840     0.0028004400
       117.40348       0.98168470     0.0028259330
       117.85312       0.98151810     0.0028515730
       118.29811       0.98133270     0.0028602590
       118.75425       0.98114210     0.0028959860
       119.21132       0.98094330     0.0029168020
       119.67025       0.98074580     0.0029677280
       120.13475       0.98054780     0.0029972300
       120.60297       0.98035200     0.0030640740
       121.07211       0.98018850     0.0031286230
       121.54869       0.98002510     0.0031378670
       122.02527       0.97984220     0.0031681520
       122.50835       0.97964390     0.0031683370
       122.99607       0.97945230     0.0032251480
       123.48380       0.97925830     0.0032133600
       123.97896       0.97903030     0.0032358530
       124.47597       0.97884010     0.0033097150
       124.97763       0.97865250     0.0032794080
       125.48487       0.97840860     0.0032924420
       125.99396       0.97817960     0.0033391110
       126.51049       0.97795530     0.0033552780
       127.02422       0.97772110     0.0033905880
       127.54725       0.97749190     0.0034312270
       128.07678       0.97726610     0.0034650350
       128.60910       0.97703240     0.0034830580
       129.14420       0.97678560     0.0035049430
       129.68303       0.97649760     0.0035178450
       130.22742       0.97625300     0.0036572250
       130.77832       0.97604750     0.0036669660
       131.33386       0.97582350     0.0037202840
       131.89126       0.97556100     0.0036935470
       132.45424       0.97529980     0.0037868740
       133.02464       0.97505570     0.0037820880
       133.59784       0.97479230     0.0038468150
       134.17382       0.97454070     0.0038559790
       134.76002       0.97427360     0.0038925670
       135.34808       0.97398800     0.0038980820
       135.94171       0.97370000     0.0039530360
       136.53720       0.97341910     0.0039818140
       137.14105       0.97312950     0.0040189270
       137.75233       0.97284760     0.0040603840
       138.36919       0.97253780     0.0040618420
       138.98790       0.97222570     0.0041318470
       139.61684       0.97192730     0.0041465440
       140.24577       0.97160250     0.0041839060
       140.88492       0.97127090     0.0042086730
       141.52872       0.97093260     0.0042620700
       142.17810       0.97060670     0.0043157800
       142.83304       0.97027850     0.0043532590
       143.49449       0.96992120     0.0043641020
       144.15966       0.96956570     0.0044538700
       144.83039       0.96922240     0.0044823940
       145.51042       0.96887010     0.0045390800
       146.19696       0.96850550     0.0045545340
       146.88999       0.96812440     0.0046080710
       147.58953       0.96772600     0.0046297390
       148.29557       0.96732820     0.0047093070
       149.01462       0.96692610     0.0047343590
       149.73273       0.96650320     0.0048080650
       150.45736       0.96607850     0.0048596100
       151.19127       0.96568020     0.0049772560
       151.93075       0.96525820     0.0049589760
       152.67767       0.96480410     0.0050691230
       153.43481       0.96435500     0.0051002430
       154.19937       0.96391040     0.0052274360
       154.96859       0.96346070     0.0052399890
       155.75266       0.96296370     0.0053310390
       156.53767       0.96250380     0.0054435660
       157.33382       0.96203050     0.0054760560
       158.13369       0.96151370     0.0055600300
       158.94750       0.96100980     0.0056575870
       159.76502       0.96051620     0.0057449350
       160.59183       0.95998580     0.0057756550
       161.42979       0.95936690     0.0058396760
       162.27425       0.95881290     0.0060911010
       163.12894       0.95832460     0.0061697190
       163.99012       0.95779810     0.0062738230
       164.86431       0.95718280     0.0062752050
       165.74593       0.95657360     0.0065223500
       166.63685       0.95604230     0.0066160700
       167.53705       0.95549430     0.0067301180
       168.44840       0.95486500     0.0067026500
       169.36904       0.95410390     0.0068154390
       170.29897       0.95345340     0.0071250740
       171.23912       0.95290150     0.0072528280
       172.18949       0.95231610     0.0073524300
       176.10523       0.95164050     0.0073371150
       177.10948       0.94838300     0.0077470080
       178.12581       0.94756610     0.0082078670
       179.15514       0.94689450     0.0083824310
       180.19748       0.94611800     0.0085264390
       181.25189       0.94528770     0.0087048950
       182.31839       0.94443450     0.0088998860
       183.39882       0.94355620     0.0090999000
       184.49039       0.94267430     0.0093458370
       185.59498       0.94178190     0.0095533300
       186.71164       0.94085510     0.0097791610
       187.84316       0.93990460      0.010017393
       188.98862       0.93893010      0.010253578
       190.14987       0.93789290      0.010494479
       191.32413       0.93686450      0.010841381
       192.51139       0.93581810      0.011101055
       193.71445       0.93478780      0.011496709
       194.93423       0.93374770      0.011702581
       196.16608       0.93251570      0.011937045
       197.41745       0.93129870      0.012430973
       198.68089       0.93014730      0.012819578
       199.96291       0.92899740      0.013261670
       201.26073       0.92775650      0.013543114
       202.57712       0.92646510      0.014059591
       203.91117       0.92514060      0.014426784
       205.26194       0.92380710      0.015049210
       206.62757       0.92253600      0.015508064
       208.01550       0.92110370      0.015921077
       209.42294       0.91965270      0.016590086
       210.84616       0.91822590      0.017140394
       212.28890       0.91677660      0.017791685
       213.75580       0.91527770      0.018353061
       215.23941       0.91373430      0.019064631
       216.74532       0.91220960      0.019719685
       218.26889       0.91058910      0.020350857
       219.81846       0.90884900      0.021049656
       221.38383       0.90717560      0.022001648
       222.97428       0.90554300      0.022724871
       224.59167       0.90380070      0.023550696
       226.23043       0.90215160      0.024451660
       227.89334       0.90041620      0.024993727
       229.58319       0.89827100      0.025538328
       231.29720       0.89592800      0.026549700
       233.04187       0.89400500      0.027960847
       234.80604       0.89200200      0.028466559
       236.59994       0.88953800      0.029443438
       238.41893       0.88729700      0.030724705
       240.26485       0.88489400      0.031357046
       242.14329       0.88241400      0.032579863
       244.04496       0.87935600      0.032630205
       245.97914       0.87574300      0.034008491
       247.94862       0.87138400      0.034444374
       247.97080       0.85926300      0.036130442
       249.24093       0.85919400      0.040821900
       250.51706       0.86435000      0.042247400
       251.80018       0.86307700      0.043722900
       253.08979       0.86145300      0.045249900
       254.38590       0.85969200      0.046830200
       255.68850       0.85785700      0.048465700
       256.99812       0.85597300      0.050158200
       258.31422       0.85406000      0.051909800
       259.63734       0.85211700      0.053722700
       260.96695       0.85015600      0.055598900
       262.30359       0.84818000      0.057540600
       263.64671       0.84618800      0.059550100
       264.99685       0.84418900      0.061629700
       266.35402       0.84218300      0.063782000
       267.71823       0.84017200      0.066009500
       269.08948       0.83815800      0.068315000
       270.46718       0.83614700      0.070701100
       271.85250       0.83414100      0.073170200
       273.24486       0.83214200      0.075725500
       274.64425       0.83015000      0.078369900
       276.05067       0.82818300      0.081106800
       277.46413       0.82622700      0.083939400
       278.88523       0.82430000      0.086870800
       280.31335       0.82240300      0.089904700
       281.74914       0.82054700      0.093044400
       283.19195       0.81873300      0.096293800
       284.64242       0.81698100      0.099656700
       286.10057       0.81530100       0.10313700
       287.56572       0.81369800       0.10673900
       289.03788       0.81221100       0.11046600
       290.51838       0.81086500       0.11432500
       292.00656       0.80973000       0.11831800
       293.50172       0.80902000       0.12245000
       295.00456       0.80859000       0.12606300
       296.51577       0.80799900       0.12936700
       298.03395       0.80726400       0.13275800
       299.56051       0.80651800       0.13612200
       301.09475       0.80569300       0.13944200
       302.63667       0.80477900       0.14284400
       304.18624       0.80383800       0.14632800
       305.74423       0.80288500       0.14989800
       307.30988       0.80192200       0.15355400
       308.88395       0.80097300       0.15730000
       310.46568       0.80004100       0.16113700
       312.05583       0.79912600       0.16506800
       313.65443       0.79824400       0.16909400
       315.26067       0.79739500       0.17322000
       316.87534       0.79658500       0.17744600
       318.49764       0.79582200       0.18177500
       320.12920       0.79511400       0.18620900
       321.76838       0.79446100       0.19075200
       323.41599       0.79387700       0.19540500
       325.07289       0.79336200       0.20017100
       326.73738       0.79292100       0.20505400
       328.41031       0.79257200       0.21005600
       330.09254       0.79231000       0.21518000
       331.78322       0.79215300       0.22042900
       333.48234       0.79210900       0.22580600
       335.18989       0.79218400       0.23131500
       336.90678       0.79239400       0.23695800
       338.63209       0.79274800       0.24273800
       340.36676       0.79325800       0.24866000
       342.10985       0.79394600       0.25472600
       343.86135       0.79481900       0.26093900
       345.62221       0.79590500       0.26730500
       347.39243       0.79723200       0.27382600
       349.17203       0.79881700       0.28050600
       350.96002       0.80070200       0.28735000
       352.75738       0.80291600       0.29435900
       354.56412       0.80552700       0.30154000
       356.38025       0.80860100       0.30889500
       358.20472       0.81227100       0.31643100
       360.03961       0.81673700       0.32415000
       361.88283       0.82291400       0.33205700
       363.73648       0.82979300       0.33722600
       365.59952       0.83579000       0.34167800
       367.47194       0.84139100       0.34618800
       369.35373       0.84691500       0.35051400
       371.24489       0.85233400       0.35475900
       373.14654       0.85775400       0.35905500
       375.05755       0.86329400       0.36340200
       376.97792       0.86904700       0.36780300
       378.90880       0.87520500       0.37225600
       380.84902       0.88185000       0.37648000
       382.79977       0.88875500       0.38025200
       384.76105       0.89607400       0.38406100
       386.73046       0.90425390       0.38736700
       388.71161       0.91230040       0.38881100
       390.70209       0.91957270       0.39026200
       392.70310       0.92665510       0.39171700
       394.71466       0.93372700       0.39318000
       396.73551       0.94091060       0.39464800
       398.76818       0.94831490       0.39612100
       400.81012       0.95609670       0.39759900
       402.86261       0.96448040       0.39908300
       404.92565       0.97421530       0.40057200
       406.99924       0.98467190       0.39990000
       409.08338       0.99498949       0.39869600
       411.17943        1.0064665       0.39749600
       413.28467        1.0195166       0.39424100
2200.	.57	1.17
2300.	.59	1.20
2400.	.60	1.25
2500.	.63	1.26
2600.	.63	1.35
2700.	.65	1.40
2800.	.69	1.40
2900.	.70	1.48
3000.	.76	1.41
3200.	.80	1.47
3350.	.83	1.52
3500.	.87	1.58
3750.	.89	1.71
4000.	.93	1.82
4250.	.97	2.07
4500.	1.05	2.24
4750.	1.16	2.42
5000.	1.31	2.47
5250.	1.44	2.52
5500.	1.52	2.64
5750.	1.65	2.66
6000.	1.74	2.85
6250.	1.82	2.84
6500.	1.95	2.86
6750.	2.05	2.81
7000.	2.11	2.80
7250.	2.13	2.81
7500.	2.16	2.79
8000.	2.21	2.73
8300.	2.23	2.62
9000.	2.25	2.53
9500.	2.27	2.46
10000.	2.30	2.41
10500.	2.28	2.39
11000.	2.26	2.38
11500.	2.25	2.33
12000.	2.21	2.33
13000.	2.18	2.31
14000.	2.14	2.46
15000.	2.14	2.45
16000.	2.17	2.56
17000.	2.21	2.57
18000.	2.22	2.74
19000.	2.30	2.74
20000.	2.37	2.90
22000.	2.46	3.16
24000.	2.60	3.48
26000.	2.76	3.74
28000.	2.95	3.86
30000.	3.16	4.11
32000.	3.31	4.38
34000.	3.57	4.48
36000.	3.79	4.69
38000.	4.06	4.77
40000.	4.23	5.01
