;  Optical constants for Zn.
;  Density = 7.1400000 g/cm3
;   
;  Computed from the atomic scattering factors from 
;  CXRO <http://www-cxro.lbl.gov> and
;  LLNL <http://www-phys.llnl.gov/V_Div/scattering/asf.html>.
;   
;  Lambda (A) n k
      0.12398425       0.99999986    2.2549922e-10
      0.12460729       0.99999986    2.3012993e-10
      0.12523662       0.99999986    2.3487992e-10
      0.12651454       0.99999986    2.4475144e-10
      0.12848109       0.99999985    2.6054937e-10
      0.13050974       0.99999985    2.7763928e-10
      0.13189814       0.99999985    2.8981265e-10
      0.13331640       0.99999984    3.0265892e-10
      0.13550191       0.99999984    3.2328844e-10
      0.13776028       0.99999983    3.4570130e-10
      0.13930815       0.99999983    3.6170982e-10
      0.14089119       0.99999982    3.7865298e-10
      0.14333439       0.99999982    4.0596685e-10
      0.14586382       0.99999981    4.3578242e-10
      0.14760030       0.99999981    4.5718469e-10
      0.14937861       0.99999980    4.7991400e-10
      0.15064915       0.99999980    4.9666692e-10
      0.15212791       0.99999980    5.1671593e-10
      0.15344585       0.99999979    5.3509307e-10
      0.15498031       0.99999979    5.5710406e-10
      0.15634836       0.99999978    5.7726586e-10
      0.15774078       0.99999978    5.9834616e-10
      0.15915822       0.99999978    6.2039541e-10
      0.16078881       0.99999977    6.4650987e-10
      0.16313717       0.99999976    6.8556415e-10
      0.16421755       0.99999976    7.0411555e-10
      0.16540055       0.99999976    7.2485939e-10
      0.16709468       0.99999975    7.5534516e-10
      0.16868605       0.99999975    7.8485174e-10
      0.17030804       0.99999974    8.1581232e-10
      0.17220035       0.99999974    8.5309670e-10
      0.17462570       0.99999973    9.0274366e-10
      0.17712036       0.99999972    9.5604132e-10
      0.17968732       0.99999971    1.0130241e-09
      0.18232978       0.99999971    1.0743228e-09
      0.18395289       0.99999970    1.1131649e-09
      0.18552185       0.99999970    1.1517029e-09
      0.18813998       0.99999969    1.2182293e-09
      0.19074500       0.99999968    1.2872425e-09
      0.19372539       0.99999967    1.3696419e-09
      0.19680040       0.99999966    1.4587333e-09
      0.19901164       0.99999965    1.5254420e-09
      0.20160041       0.99999964    1.6064146e-09
      0.20392146       0.99999963    1.6817081e-09
      0.20664042       0.99999962    1.7732571e-09
      0.20733152       0.99999962    1.7970168e-09
      0.20823690       0.99999962    1.8285133e-09
      0.21193889       0.99999960    1.9616243e-09
      0.21376595       0.99999959    2.0299422e-09
      0.21551234       0.99999959    2.0968725e-09
      0.21828213       0.99999958    2.2064248e-09
      0.22140045       0.99999957    2.3348234e-09
      0.22542591       0.99999955    2.5087534e-09
      0.22749404       0.99999954    2.6015938e-09
      0.22960046       0.99999953    2.6987489e-09
      0.23174626       0.99999952    2.8005081e-09
      0.23393255       0.99999951    2.9070976e-09
      0.23616048       0.99999950    3.0188214e-09
      0.23843125       0.99999950    3.1359852e-09
      0.24074612       0.99999949    3.2588784e-09
      0.24310637       0.99999948    3.3878592e-09
      0.24551337       0.99999946    3.5232899e-09
      0.24796850       0.99999945    3.6655547e-09
      0.25047323       0.99999944    3.8145242e-09
      0.25302908       0.99999943    3.9711453e-09
      0.25563763       0.99999942    4.1358951e-09
      0.25830052       0.99999941    4.3093004e-09
      0.26101947       0.99999939    4.4916806e-09
      0.26379628       0.99999938    4.6838428e-09
      0.26663280       0.99999937    4.8863998e-09
      0.26953098       0.99999935    5.1000684e-09
      0.27369592       0.99999933    5.4192456e-09
      0.27861629       0.99999931    5.8145130e-09
      0.28306906       0.99999929    6.1900216e-09
      0.28833547       0.99999926    6.6571541e-09
      0.29310697       0.99999924    7.1012552e-09
      0.29875723       0.99999921    7.6553021e-09
      0.30388297       0.99999918    8.1852203e-09
      0.30996062       0.99999915    8.8484858e-09
      0.31388418       0.99999912    9.2962500e-09
      0.31790833       0.99999910    9.7728286e-09
      0.32203701       0.99999908    1.0280457e-08
      0.32627434       0.99999905    1.0821640e-08
      0.33062467       0.99999903    1.1397218e-08
      0.33509257       0.99999900    1.2011757e-08
      0.33968288       0.99999897    1.2668512e-08
      0.34411393       0.99999895    1.3327456e-08
      0.34729482       0.99999893    1.3815974e-08
      0.35123017       0.99999890    1.4438678e-08
      0.35525573       0.99999888    1.5096253e-08
      0.35937464       0.99999885    1.5789532e-08
      0.36359018       0.99999882    1.6523268e-08
      0.36681731       0.99999880    1.7101845e-08
      0.37121033       0.99999877    1.7913516e-08
      0.37570985       0.99999874    1.8774158e-08
      0.38031979       0.99999871    1.9686153e-08
      0.38385217       0.99999869    2.0406899e-08
      0.38866536       0.99999865    2.1420300e-08
      0.39360079       0.99999862    2.2497791e-08
      0.39738542       0.99999859    2.3349425e-08
      0.40254627       0.99999855    2.4549027e-08
      0.40784293       0.99999852    2.5827151e-08
      0.41328083       0.99999848    2.7319808e-08
      0.41996528       0.99999842    2.9076889e-08
      0.42675785       0.99999837    3.0945724e-08
      0.43365996       0.99999832    3.2933263e-08
      0.44067464       0.99999827    3.5047160e-08
      0.44780188       0.99999821    3.7295043e-08
      0.45504485       0.99999815    3.9685376e-08
      0.46240522       0.99999809    4.2227180e-08
      0.46988471       0.99999803    4.4929820e-08
      0.47748323       0.99999796    4.7802837e-08
      0.48520618       0.99999789    5.0857558e-08
      0.49305362       0.99999783    5.4104816e-08
      0.50102946       0.99999775    5.7557049e-08
      0.50913375       0.99999768    6.1226391e-08
      0.51736847       0.99999761    6.5126337e-08
      0.52573570       0.99999753    6.9271021e-08
      0.53423986       0.99999745    7.3676117e-08
      0.54288101       0.99999736    7.8357102e-08
      0.55166142       0.99999728    8.3330944e-08
      0.56058349       0.99999719    8.8615428e-08
      0.56964967       0.99999710    9.4229758e-08
      0.57886523       0.99999700    1.0019513e-07
      0.58822755       0.99999690    1.0653079e-07
      0.59774203       0.99999680    1.1326191e-07
      0.60740863       0.99999670    1.2040944e-07
      0.61723320       0.99999659    1.2800109e-07
      0.62721577       0.99999648    1.3606153e-07
      0.63736268       0.99999636    1.4462306e-07
      0.64767070       0.99999625    1.5371072e-07
      0.65814639       0.99999612    1.6336036e-07
      0.66878971       0.99999600    1.7360160e-07
      0.67960781       0.99999587    1.8447464e-07
      0.69060079       0.99999573    1.9601425e-07
      0.70176851       0.99999560    2.0825810e-07
      0.71312284       0.99999545    2.2125468e-07
      0.72465574       0.99999531    2.3504149e-07
      0.73637533       0.99999516    2.4966656e-07
      0.74828597       0.99999500    2.6518317e-07
      0.76038766       0.99999484    2.8163949e-07
      0.77268974       0.99999467    2.9909666e-07
      0.78518752       0.99999450    3.1760490e-07
      0.79788566       0.99999433    3.3722785e-07
      0.81078912       0.99999415    3.5803121e-07
      0.82390321       0.99999396    3.8008472e-07
      0.83722795       0.99999377    4.0345696e-07
      0.85077472       0.99999357    4.2823121e-07
      0.86453191       0.99999337    4.5447424e-07
      0.87851717       0.99999316    4.8228214e-07
      0.89272445       0.99999294    5.1173532e-07
      0.90716643       0.99999272    5.4293242e-07
      0.92183655       0.99999249    5.7596419e-07
      0.93674824       0.99999226    6.1094330e-07
      0.95189443       0.99999202    6.4796171e-07
      0.96729692       0.99999177    6.8715793e-07
      0.98294103       0.99999152    7.2862672e-07
      0.99884192       0.99999126    7.7250467e-07
       1.0149914       0.99999100    8.1890857e-07
       1.0314143       0.99999073    8.6800807e-07
       1.0480937       0.99999045    9.1990949e-07
       1.0650470       0.99999017    9.7478851e-07
       1.0822742       0.99998989    1.0327897e-06
       1.0997751       0.99998960    1.0940732e-06
       1.1175592       0.99998931    1.1588187e-06
       1.1356365       0.99998902    1.2272135e-06
       1.1540074       0.99998873    1.2994443e-06
       1.1726719       0.99998844    1.3756851e-06
       1.1916406       0.99998816    1.4561590e-06
       1.2109138       0.99998791    1.5410610e-06
       1.2305030       0.99998769    1.6306331e-06
       1.2504021       0.99998755    1.7250675e-06
       1.2706260       0.99998766    1.8248487e-06
       1.2836536       0.99999105    1.8912578e-06
       1.2836802       0.99999105    2.4416878e-07
       1.2911771       0.99998761    2.4974305e-07
       1.3120610       0.99998652    2.6576862e-07
       1.3332830       0.99998581    2.8279257e-07
       1.3548474       0.99998517    3.0087444e-07
       1.3767614       0.99998455    3.2007677e-07
       1.3990297       0.99998394    3.4046425e-07
       1.4216568       0.99998333    3.6211808e-07
       1.4446523       0.99998271    3.8511764e-07
       1.4680180       0.99998208    4.0953944e-07
       1.4917624       0.99998144    4.3546584e-07
       1.5158889       0.99998078    4.6299957e-07
       1.5404086       0.99998010    4.9223377e-07
       1.5653233       0.99997940    5.2327802e-07
       1.5906408       0.99997868    5.5623528e-07
       1.6163693       0.99997794    5.9122189e-07
       1.6425127       0.99997718    6.2836425e-07
       1.6690775       0.99997640    6.6780191e-07
       1.6960747       0.99997559    7.0967090e-07
       1.7235068       0.99997475    7.5411425e-07
       1.7513829       0.99997389    8.0129804e-07
       1.7797106       0.99997300    8.5138085e-07
       1.8084974       0.99997209    9.0454831e-07
       1.8377457       0.99997114    9.6097502e-07
       1.8674717       0.99997016    1.0208798e-06
       1.8976755       0.99996915    1.0844585e-06
       1.9283713       0.99996811    1.1519798e-06
       1.9595592       0.99996703    1.2235614e-06
       1.9912542       0.99996592    1.2995723e-06
       2.0234629       0.99996477    1.3803035e-06
       2.0561883       0.99996359    1.4659220e-06
       2.0894473       0.99996236    1.5567959e-06
       2.1232398       0.99996109    1.6532408e-06
       2.1575837       0.99995979    1.7556461e-06
       2.1924790       0.99995844    1.8642838e-06
       2.2279410       0.99995704    1.9795051e-06
       2.2639777       0.99995560    2.1018027e-06
       2.3005973       0.99995411    2.2316729e-06
       2.3378081       0.99995257    2.3694202e-06
       2.3756186       0.99995098    2.5156045e-06
       2.4140424       0.99994934    2.6707145e-06
       2.4530886       0.99994765    2.8353266e-06
       2.4927620       0.99994589    3.0098767e-06
       2.5330824       0.99994408    3.1951173e-06
       2.5740550       0.99994221    3.3916816e-06
       2.6156849       0.99994028    3.6001958e-06
       2.6579939       0.99993829    3.8215105e-06
       2.7009877       0.99993622    4.0561868e-06
       2.7446721       0.99993409    4.3052891e-06
       2.7890648       0.99993189    4.5694270e-06
       2.8341719       0.99992962    4.8496360e-06
       2.8800192       0.99992727    5.1470413e-06
       2.9266003       0.99992484    5.4623208e-06
       2.9739352       0.99992234    5.7968119e-06
       3.0220307       0.99991975    6.1515720e-06
       3.0709086       0.99991707    6.5279398e-06
       3.1205844       0.99991431    6.9269974e-06
       3.1710581       0.99991146    7.3504236e-06
       3.2223454       0.99990851    7.7993221e-06
       3.2744626       0.99990546    8.2754377e-06
       3.3274268       0.99990232    8.7803740e-06
       3.3812472       0.99989907    9.3157445e-06
       3.4359325       0.99989572    9.8833823e-06
       3.4915109       0.99989226    1.0485448e-05
       3.5479825       0.99988869    1.1123698e-05
       3.6053672       0.99988500    1.1800434e-05
       3.6636748       0.99988119    1.2517794e-05
       3.7229377       0.99987725    1.3278387e-05
       3.7831564       0.99987319    1.4084796e-05
       3.8443417       0.99986900    1.4939559e-05
       3.9065168       0.99986468    1.5845488e-05
       3.9697063       0.99986021    1.6805934e-05
       4.0339103       0.99985561    1.7823767e-05
       4.0991543       0.99985086    1.8902463e-05
       4.1654656       0.99984595    2.0045569e-05
       4.2328301       0.99984089    2.1256781e-05
       4.3012899       0.99983568    2.2540295e-05
       4.3708599       0.99983030    2.3900216e-05
       4.4415557       0.99982475    2.5340691e-05
       4.5133926       0.99981903    2.6866913e-05
       4.5864037       0.99981313    2.8484054e-05
       4.6605890       0.99980705    3.0197360e-05
       4.7359651       0.99980079    3.2010054e-05
       4.8125674       0.99979433    3.3931702e-05
       4.8903959       0.99978769    3.5966105e-05
       4.9695078       0.99978084    3.8120496e-05
       5.0498841       0.99977379    4.0401055e-05
       5.1315648       0.99976653    4.2816057e-05
       5.2145492       0.99975907    4.5372646e-05
       5.2989025       0.99975138    4.8077916e-05
       5.3846029       0.99974348    5.0943632e-05
       5.4716958       0.99973535    5.3972885e-05
       5.5602058       0.99972700    5.7178891e-05
       5.6501326       0.99971841    6.0573476e-05
       5.7415267       0.99970960    6.4161405e-05
       5.8343882       0.99970054    6.7957428e-05
       5.9287432       0.99969125    7.1972914e-05
       6.0246483       0.99968173    7.6221223e-05
       6.1220744       0.99967199    8.0708080e-05
       6.2211108       0.99966199    8.5382568e-05
       6.3217276       0.99965169    9.0366252e-05
       6.4239878       0.99964115    9.5642580e-05
       6.5278919       0.99963036    0.00010122783
       6.6334728       0.99961933    0.00010713989
       6.7407656       0.99960806    0.00011339690
       6.8497693       0.99959657    0.00012001763
       6.9605584       0.99958487    0.00012702423
       7.0731335       0.99957297    0.00013441440
       7.1875344       0.99956090    0.00014219691
       7.3038032       0.99954862    0.00015031064
       7.4219400       0.99953607    0.00015888661
       7.5419881       0.99952333    0.00016795185
       7.6639458       0.99951040    0.00017753280
       7.7879065       0.99949732    0.00018766161
       7.9138715       0.99948413    0.00019836933
       8.0418913       0.99947083    0.00020968738
       8.1719659       0.99945750    0.00022164998
       8.3041479       0.99944419    0.00023428593
       8.4384358       0.99943093    0.00024757982
       8.5749435       0.99941775    0.00026161372
       8.7136125       0.99940473    0.00027642437
       8.8545632       0.99939196    0.00029208019
       8.9977974       0.99937955    0.00030862100
       9.1433138       0.99936765    0.00032609523
       9.2911768       0.99935643    0.00034455605
       9.4414555       0.99934611    0.00036406783
       9.5941507       0.99933705    0.00038468280
       9.7493355       0.99932996    0.00040646979
       9.9070893       0.99932551    0.00042762675
       10.067334       0.99932218    0.00044830030
       10.230146       0.99931971    0.00046848246
       10.395607       0.99931832    0.00048957263
       10.563718       0.99931897    0.00051160664
       10.734567       0.99932243    0.00053463707
       10.908249       0.99932972    0.00055871337
       11.084670       0.99934226    0.00058386374
       11.263923       0.99936219    0.00061014025
       11.446109       0.99939313    0.00063761384
       11.631229       0.99944214    0.00066633275
       11.819393       0.99952602    0.00069630601
       12.010603       0.99971142    0.00072763223
       12.132718        1.0006691    0.00074810374
       12.135093        1.0006697    0.00010270830
       12.204856       0.99983442    0.00010450508
       12.402208       0.99955674    0.00010982182
       12.602805       0.99943086    0.00011542104
       12.806650       0.99934128    0.00012131759
       13.013782       0.99926747    0.00012751472
       13.224267       0.99920197    0.00013411757
       13.438163       0.99914127    0.00014116735
       13.655510       0.99908355    0.00014901698
       13.876385       0.99902782    0.00015730195
       14.100833       0.99897316    0.00016604623
       14.328900       0.99891902    0.00017528109
       14.560653       0.99886499    0.00018503347
       14.796157       0.99881076    0.00019533243
       15.035483       0.99875610    0.00020621469
       15.278668       0.99870084    0.00021770188
       15.525784       0.99864485    0.00022982768
       15.776908       0.99858809    0.00024262842
       16.032080       0.99853058    0.00025575539
       16.291381       0.99847175    0.00026910483
       16.554896       0.99841131    0.00028300272
       16.822646       0.99834928    0.00029760506
       17.094744       0.99828561    0.00031296542
       17.371237       0.99822029    0.00032911677
       17.652220       0.99815326    0.00034584882
       17.937718       0.99808405    0.00036304767
       18.227858       0.99801202    0.00038134442
       18.522667       0.99793748    0.00040134284
       18.822253       0.99786134    0.00042343774
       19.126701       0.99778363    0.00044674619
       19.436071       0.99770422    0.00047100407
       19.750420       0.99762258    0.00049604798
       20.069873       0.99753835    0.00052204362
       20.394494       0.99745133    0.00054937165
       20.724350       0.99736152    0.00057813493
       21.059540       0.99726879    0.00060839529
       21.400172       0.99717288    0.00064034518
       21.746320       0.99707371    0.00067414788
       22.098019       0.99697104    0.00071031226
       22.455464       0.99686480    0.00074829761
       22.818655       0.99675491    0.00079137633
       23.187715       0.99664325    0.00083693466
       23.562773       0.99652899    0.00088511770
       23.943873       0.99641191    0.00093607383
       24.331152       0.99629195    0.00098996142
       24.724703       0.99616908     0.0010469548
       25.124575       0.99604331     0.0011072230
       25.530967       0.99591469     0.0011709689
       25.943881       0.99578341     0.0012383767
       26.363529       0.99564961     0.0013096729
       26.789912       0.99551524     0.0013850651
       27.223259       0.99538017     0.0014603431
       27.663570       0.99523848     0.0015371619
       28.111028       0.99509233     0.0016180232
       28.565693       0.99494216     0.0017031339
       29.027695       0.99478814     0.0017927237
       29.497164       0.99463044     0.0018870196
       29.974313       0.99446912     0.0019862912
       30.459069       0.99430451     0.0020907680
       30.951724       0.99413677     0.0022007485
       31.452358       0.99396640     0.0023165175
       31.961129       0.99379399     0.0024383825
       32.478035       0.99362408     0.0025666413
       33.003325       0.99345680     0.0026904448
       33.537174       0.99327664     0.0028147447
       34.079583       0.99309005     0.0029447775
       34.630828       0.99289774     0.0030808288
       35.190907       0.99270004     0.0032231475
       35.760114       0.99249717     0.0033720547
       36.338557       0.99228928     0.0035278474
       36.926230       0.99207655     0.0036908135
       37.523455       0.99185904     0.0038613178
       38.130463       0.99163682     0.0040397255
       38.747137       0.99141031     0.0042263383
       39.373829       0.99117958     0.0044215857
       40.010665       0.99094515     0.0046258583
       40.657906       0.99070926     0.0048395854
       41.315413       0.99047278     0.0050585031
       41.983729       0.99022824     0.0052811271
       42.662715       0.98997649     0.0055135532
       43.352804       0.98971872     0.0057561638
       44.053998       0.98945545     0.0060094630
       44.766606       0.98918691     0.0062739501
       45.490627       0.98891341     0.0065500574
       46.226385       0.98863507     0.0068382645
       46.974051       0.98835219     0.0071392164
       47.733800       0.98806489     0.0074533951
       48.505812       0.98777355     0.0077813662
       49.290465       0.98747825     0.0081238558
       50.087563       0.98717956     0.0084812864
       50.897699       0.98687753     0.0088545093
       51.721092       0.98657235     0.0092442143
       52.557524       0.98626431     0.0096510398
       53.407647       0.98595230      0.010075723
       54.271466       0.98563067      0.010519557
       55.149211       0.98530957      0.011014972
       56.041372       0.98501299      0.011533824
       56.947698       0.98473539      0.012076985
       57.868691       0.98449938      0.012645681
       58.804899       0.98431909      0.013201033
       59.755765       0.98411948      0.013688267
       60.722419       0.98388806      0.014193758
       61.704582       0.98364639      0.014717825
       62.702545       0.98340056      0.015261168
       63.716615       0.98315479      0.015824520
       64.747453       0.98291206      0.016408817
       65.794382       0.98267683      0.017014476
       66.858775       0.98245324      0.017642863
       67.939926       0.98226491      0.018294028
       69.038928       0.98212324      0.018914423
       70.155805       0.98193743      0.019510738
       71.290142       0.98173696      0.020125636
       72.443557       0.98153093      0.020760313
       73.615234       0.98132454      0.021414590
       74.805571       0.98112085      0.022089621
       76.015922       0.98092283      0.022786194
       77.245385       0.98073433      0.023504419
       78.494394       0.98055999      0.024245047
       79.763927       0.98040547      0.025009377
       81.054529       0.98027970      0.025798117
       82.365143       0.98019838      0.026611139
       83.697362       0.98019090      0.027450024
       85.051209       0.98041691      0.028315376
       86.426674       0.98083600      0.028594288
       87.824958       0.98072492      0.028719719
       89.245456       0.98031310      0.028845664
       90.688774       0.97946666      0.029164565
       92.155562       0.97865645      0.030182725
       93.645815       0.97815123      0.031236361
       95.160950       0.97776138      0.032327150
       96.700269       0.97746562      0.033455912
       98.263721       0.97729078      0.034623659
       99.853623       0.97730238      0.035662280
       101.46841       0.97721257      0.036567854
       103.10969       0.97706661      0.037496728
       104.77749       0.97690286      0.038449212
       106.47177       0.97673283      0.039425252
       108.19436       0.97656202      0.040427163
       109.94436       0.97639598      0.041453917
       111.72269       0.97623986      0.042506877
       113.52933       0.97610489      0.043585987
       115.36531       0.97600964      0.044693112
       117.23170       0.97595671      0.045722505
       119.12742       0.97584171      0.046745706
       121.05473       0.97570243      0.047792509
       123.01245       0.97554905      0.048861729
       125.00202       0.97538517      0.049955536
       127.02380       0.97521288      0.051073515
       129.07833       0.97503346      0.052216720
       131.16612       0.97484727      0.053385786
       133.28759       0.97465466      0.054580734
       135.44344       0.97445507      0.055802312
       137.63411       0.97424758      0.057051064
       139.86020       0.97402991      0.058328252
       142.12233       0.97379801      0.059633460
       144.42114       0.97354135      0.060968554
       146.75697       0.97322506      0.062333134
       149.13066       0.97289414      0.063895499
       151.54275       0.97264658      0.065499845
       153.99379       0.97243885      0.067144525
       156.48452       0.97226144      0.068830480
       159.01553       0.97211394      0.070558782
       161.58742       0.97199842      0.072330407
       164.20102       0.97192120      0.074146629
       166.85698       0.97190244      0.076008570
       169.55575       0.97191873      0.077826894
       172.29822       0.97192173      0.079687588
       175.08487       0.97193604      0.081592487
       177.91666       0.97197029      0.083543119
       180.79436       0.97202858      0.085540471
       183.71875       0.97211486      0.087585563
       186.69009       0.97223314      0.089679309
       189.70977       0.97238741      0.091823538
       192.77807       0.97258266      0.094018604
       195.89617       0.97282493      0.096266374
       199.06468       0.97312175      0.098567989
       202.28423       0.97348390       0.10092425
       205.55611       0.97392635       0.10333711
       208.88101       0.97451679       0.10580784
       212.25927       0.97535216       0.10813273
       215.69230       0.97602348       0.11033868
       219.18124       0.97665746       0.11259006
       222.72606       0.97730003       0.11488690
       226.32876       0.97796375       0.11723113
       229.98932       0.97865848       0.11962266
       233.70942       0.97939241       0.12206326
       237.48951       0.98017332       0.12455376
       241.33046       0.98100874       0.12709461
       245.23365       0.98190747       0.12968731
       249.20055       0.98287879       0.13233361
       253.23115       0.98393432       0.13503357
       257.32697       0.98508784       0.13778845
       261.48905       0.98635814       0.14059939
       265.71850       0.98777076       0.14346800
       270.01583       0.98936587       0.14639448
       274.38339       0.99121455       0.14938160
       278.82118       0.99359480       0.15242895
       283.33105       0.99661545       0.15447366
       287.91364       0.99891104       0.15607356
       292.57025        1.0009095       0.15768967
       297.30224        1.0027877       0.15932269
       302.11103        1.0045842       0.16097288
       306.99733        1.0063251       0.16263994
       311.96343        1.0080276       0.16432511
       317.00852        1.0097045       0.16602613
       322.13575        1.0113659       0.16774567
       327.34683        1.0130210       0.16948360
       332.64091        1.0146779       0.17123867
       338.02148        1.0163456       0.17301244
       343.48854        1.0180332       0.17480379
       349.04395        1.0197532       0.17661414
       354.68965        1.0215231       0.17844359
       360.42667        1.0233728       0.18029188
       366.25600        1.0253764       0.18215869
       372.17978        1.0277468       0.18369181
       378.20024        1.0297451       0.18487897
       384.31739        1.0315713       0.18607338
       390.53233        1.0332947       0.18727437
       396.84992        1.0349425       0.18848473
       403.26770        1.0365279       0.18970144
       409.79078        1.0380593       0.19092781
       416.41925        1.0395420       0.19216112
       423.15444        1.0409792       0.19340236
