;  Optical constants for evap. Zr
; 
;   taken from:
;
;   D. L. Windt, Webster C. Cash, Jr., M. Scott, P. Arendt, B. Newnam,
;   R. F. Fisher, and A. B. Swartzlander, 'Optical Constants for thin films
;   of Ti, Zr, Nb, Mo, Ru, Rh, Pd, Ag, Hf, Ta, W, Re, Ir, Os, Pt, and Au
;   from 24 to 1216 A', App. Opt., 27, 246, 1988.
;   
;    Lambda (A)            n            k
;-----------------------------------------
   23.620      .99783	.00117
   31.600      .99781	.00135
   44.700      .99536	.00498
   67.600      .9922	.00269
   114.00      .9694	.00625
   135.50      .9550	.0131
   171.40      .9188	.022
   243.03      .808	.0987
   256.32      .790	.119
   303.78      .757	.324
   327.00      .868	.320
   356.80      .949	.373
   379.31      .963	.318
   405.85      .900	.232
   447.81      .866	.314
   460.73      .829	.321
   489.50      .844	.347
   539.09      .825	.337
   584.33      .838	.362
   616.29      .826	.330
   671.39      .768	.332
   718.48      .807	.440
   735.90      .789	.492
   743.72      .817	.533
   834.46      .817	.673
   878.00      .828	.759
   919.78      .810	.858
   932.05      .804	.848
   988.78      .814	.905
   1025.8      .895	.990
   1048.2      .952	1.099
   1066.7      .850	1.08
   1085.7      .907	1.11
   1135.0      1.15	1.27
   1200.7      1.14	1.24
   1215.7      1.28	1.31
